CGATS.17

ORIGINATOR	"i1Profiler - X-Rite, Inc."
INSTRUMENTATION	"i1iSis 2 XL ; Serial number 0"
DESCRIPTOR	"i400_M2.txt"
MEASUREMENT_SOURCE	"MeasurementCondition=M2	Filter=UVcut"
ILLUMINATION_NAME	"D50"
OBSERVER_ANGLE	"2"
FILTER	"UV"
WEIGHTING_FUNCTION	"ILLUMINANT,	D50"
WEIGHTING_FUNCTION	"OBSERVER,	2 degree"
KEYWORD	"DEVCALSTD"
DEVCALSTD	"XRGA"
CREATED	"2022-01-08T19:02:49"

NUMBER_OF_FIELDS	47
BEGIN_DATA_FORMAT
SAMPLE_ID	SAMPLE_NAME	RGB_R	RGB_G	RGB_B	XYZ_X	XYZ_Y	XYZ_Z	LAB_L	LAB_A	LAB_B	SPECTRAL_NM380	SPECTRAL_NM390	SPECTRAL_NM400	SPECTRAL_NM410	SPECTRAL_NM420	SPECTRAL_NM430	SPECTRAL_NM440	SPECTRAL_NM450	SPECTRAL_NM460	SPECTRAL_NM470	SPECTRAL_NM480	SPECTRAL_NM490	SPECTRAL_NM500	SPECTRAL_NM510	SPECTRAL_NM520	SPECTRAL_NM530	SPECTRAL_NM540	SPECTRAL_NM550	SPECTRAL_NM560	SPECTRAL_NM570	SPECTRAL_NM580	SPECTRAL_NM590	SPECTRAL_NM600	SPECTRAL_NM610	SPECTRAL_NM620	SPECTRAL_NM630	SPECTRAL_NM640	SPECTRAL_NM650	SPECTRAL_NM660	SPECTRAL_NM670	SPECTRAL_NM680	SPECTRAL_NM690	SPECTRAL_NM700	SPECTRAL_NM710	SPECTRAL_NM720	SPECTRAL_NM730
END_DATA_FORMAT

NUMBER_OF_SETS	400
BEGIN_DATA
1	1	    0.00	    0.00	    0.00	 0.00204	 0.00213	 0.00188	    1.92	   -0.05	   -0.24	  0.0020	  0.0022	  0.0022	  0.0023	  0.0023	  0.0025	  0.0025	  0.0024	  0.0022	  0.0022	  0.0019	  0.0021	  0.0022	  0.0022	  0.0022	  0.0022	  0.0022	  0.0022	  0.0022	  0.0022	  0.0021	  0.0021	  0.0020	  0.0020	  0.0020	  0.0021	  0.0021	  0.0024	  0.0025	  0.0025	  0.0026	  0.0029	  0.0025	  0.0030	  0.0034	    0.00
2	2	   42.00	    0.00	    0.00	 0.01464	 0.00949	 0.00357	    8.57	   17.92	    8.02	  0.0047	  0.0050	  0.0052	  0.0054	  0.0055	  0.0052	  0.0048	  0.0044	  0.0040	  0.0039	  0.0037	  0.0038	  0.0038	  0.0036	  0.0036	  0.0035	  0.0032	  0.0034	  0.0039	  0.0055	  0.0109	  0.0184	  0.0215	  0.0226	  0.0236	  0.0248	  0.0265	  0.0283	  0.0300	  0.0314	  0.0324	  0.0328	  0.0330	  0.0338	  0.0360	    0.04
3	3	   85.00	    0.00	    0.00	 0.03864	 0.02217	 0.00457	   16.59	   30.64	   19.99	  0.0070	  0.0074	  0.0077	  0.0080	  0.0079	  0.0074	  0.0063	  0.0055	  0.0049	  0.0047	  0.0047	  0.0044	  0.0043	  0.0041	  0.0042	  0.0040	  0.0038	  0.0041	  0.0049	  0.0074	  0.0217	  0.0481	  0.0615	  0.0662	  0.0695	  0.0730	  0.0770	  0.0817	  0.0862	  0.0892	  0.0908	  0.0917	  0.0918	  0.0929	  0.0972	    0.10
4	4	  127.00	    0.00	    0.00	 0.08704	 0.04738	 0.00611	   25.98	   43.35	   33.27	  0.0111	  0.0118	  0.0123	  0.0126	  0.0127	  0.0112	  0.0087	  0.0070	  0.0061	  0.0058	  0.0056	  0.0055	  0.0052	  0.0049	  0.0050	  0.0049	  0.0044	  0.0048	  0.0058	  0.0097	  0.0413	  0.1079	  0.1440	  0.1560	  0.1635	  0.1709	  0.1793	  0.1887	  0.1977	  0.2033	  0.2054	  0.2057	  0.2046	  0.2061	  0.2142	    0.23
5	5	  170.00	    0.00	    0.00	 0.16637	 0.08824	 0.00787	   35.65	   55.76	   46.64	  0.0169	  0.0180	  0.0188	  0.0193	  0.0191	  0.0160	  0.0114	  0.0087	  0.0074	  0.0066	  0.0069	  0.0065	  0.0059	  0.0053	  0.0055	  0.0053	  0.0046	  0.0046	  0.0055	  0.0113	  0.0730	  0.2072	  0.2818	  0.3069	  0.3205	  0.3324	  0.3451	  0.3593	  0.3723	  0.3801	  0.3828	  0.3823	  0.3802	  0.3812	  0.3928	    0.41
6	6	  212.00	    0.00	    0.00	 0.25115	 0.13008	 0.00761	   42.78	   65.97	   59.39	  0.0184	  0.0197	  0.0205	  0.0210	  0.0201	  0.0157	  0.0104	  0.0078	  0.0069	  0.0069	  0.0069	  0.0064	  0.0057	  0.0051	  0.0049	  0.0047	  0.0044	  0.0048	  0.0055	  0.0103	  0.0859	  0.2901	  0.4272	  0.4805	  0.5060	  0.5225	  0.5373	  0.5518	  0.5646	  0.5728	  0.5775	  0.5794	  0.5800	  0.5821	  0.5896	    0.60
7	7	  255.00	    0.00	    0.00	 0.36187	 0.18191	 0.00623	   49.72	   77.35	   73.98	  0.0169	  0.0180	  0.0187	  0.0192	  0.0181	  0.0128	  0.0077	  0.0059	  0.0056	  0.0059	  0.0058	  0.0052	  0.0044	  0.0041	  0.0036	  0.0033	  0.0035	  0.0041	  0.0049	  0.0083	  0.0860	  0.3564	  0.5908	  0.7117	  0.7758	  0.8091	  0.8268	  0.8371	  0.8441	  0.8499	  0.8573	  0.8630	  0.8684	  0.8709	  0.8687	    0.86
8	8	    0.00	   36.00	    0.00	 0.00760	 0.01143	 0.00638	   10.13	  -12.95	    5.43	  0.0060	  0.0064	  0.0066	  0.0069	  0.0068	  0.0066	  0.0065	  0.0064	  0.0066	  0.0072	  0.0086	  0.0115	  0.0156	  0.0180	  0.0184	  0.0177	  0.0162	  0.0138	  0.0110	  0.0089	  0.0076	  0.0068	  0.0063	  0.0060	  0.0059	  0.0060	  0.0063	  0.0070	  0.0078	  0.0082	  0.0081	  0.0078	  0.0074	  0.0070	  0.0082	    0.01
9	9	   42.00	   36.00	    0.00	 0.02113	 0.02014	 0.00628	   15.56	    3.90	   14.99	  0.0054	  0.0058	  0.0060	  0.0061	  0.0067	  0.0069	  0.0066	  0.0065	  0.0065	  0.0067	  0.0083	  0.0112	  0.0148	  0.0169	  0.0177	  0.0182	  0.0181	  0.0175	  0.0174	  0.0190	  0.0223	  0.0250	  0.0256	  0.0259	  0.0267	  0.0281	  0.0300	  0.0323	  0.0347	  0.0362	  0.0371	  0.0371	  0.0373	  0.0379	  0.0408	    0.05
10	10	   85.00	   36.00	    0.00	 0.05537	 0.04073	 0.00756	   23.91	   20.88	   26.97	  0.0072	  0.0077	  0.0080	  0.0082	  0.0085	  0.0083	  0.0078	  0.0074	  0.0075	  0.0082	  0.0098	  0.0137	  0.0188	  0.0216	  0.0235	  0.0243	  0.0219	  0.0192	  0.0197	  0.0276	  0.0509	  0.0736	  0.0809	  0.0830	  0.0856	  0.0895	  0.0946	  0.1008	  0.1071	  0.1111	  0.1127	  0.1129	  0.1126	  0.1141	  0.1194	    0.13
11	11	  127.00	   36.00	    0.00	 0.10676	 0.07060	 0.00891	   31.94	   33.44	   38.45	  0.0096	  0.0103	  0.0106	  0.0110	  0.0107	  0.0098	  0.0089	  0.0084	  0.0088	  0.0095	  0.0114	  0.0162	  0.0227	  0.0267	  0.0296	  0.0307	  0.0265	  0.0219	  0.0226	  0.0368	  0.0882	  0.1461	  0.1665	  0.1722	  0.1776	  0.1845	  0.1931	  0.2033	  0.2129	  0.2190	  0.2213	  0.2213	  0.2201	  0.2214	  0.2305	    0.25
12	12	  170.00	   36.00	    0.00	 0.18275	 0.11144	 0.00920	   39.83	   46.60	   51.57	  0.0106	  0.0113	  0.0118	  0.0121	  0.0115	  0.0104	  0.0093	  0.0087	  0.0088	  0.0096	  0.0113	  0.0160	  0.0232	  0.0277	  0.0319	  0.0335	  0.0274	  0.0215	  0.0228	  0.0434	  0.1343	  0.2513	  0.2975	  0.3113	  0.3210	  0.3316	  0.3440	  0.3583	  0.3715	  0.3797	  0.3828	  0.3823	  0.3808	  0.3829	  0.3945	    0.41
13	13	  212.00	   36.00	    0.00	 0.28492	 0.16834	 0.00994	   48.05	   56.96	   64.57	  0.0111	  0.0118	  0.0124	  0.0126	  0.0121	  0.0110	  0.0098	  0.0092	  0.0093	  0.0104	  0.0122	  0.0171	  0.0259	  0.0325	  0.0391	  0.0418	  0.0333	  0.0256	  0.0274	  0.0562	  0.1946	  0.3873	  0.4729	  0.5015	  0.5173	  0.5301	  0.5434	  0.5576	  0.5703	  0.5787	  0.5839	  0.5858	  0.5870	  0.5897	  0.5968	    0.61
14	14	  255.00	   36.00	    0.00	 0.42034	 0.23836	 0.01099	   55.92	   69.11	   76.60	  0.0131	  0.0139	  0.0146	  0.0149	  0.0140	  0.0121	  0.0106	  0.0099	  0.0105	  0.0119	  0.0137	  0.0181	  0.0267	  0.0346	  0.0422	  0.0454	  0.0358	  0.0270	  0.0291	  0.0641	  0.2444	  0.5294	  0.6955	  0.7722	  0.8087	  0.8256	  0.8360	  0.8434	  0.8489	  0.8543	  0.8619	  0.8679	  0.8734	  0.8764	  0.8744	    0.87
15	15	    0.00	   72.00	    0.00	 0.01192	 0.02333	 0.01017	   17.15	  -27.26	   10.94	  0.0082	  0.0087	  0.0091	  0.0093	  0.0092	  0.0090	  0.0089	  0.0088	  0.0092	  0.0103	  0.0133	  0.0226	  0.0373	  0.0467	  0.0481	  0.0444	  0.0377	  0.0287	  0.0197	  0.0137	  0.0107	  0.0092	  0.0082	  0.0075	  0.0074	  0.0075	  0.0080	  0.0090	  0.0104	  0.0110	  0.0107	  0.0100	  0.0092	  0.0092	  0.0109	    0.02
16	16	   42.00	   72.00	    0.00	 0.03110	 0.03687	 0.00894	   22.61	   -7.26	   22.31	  0.0066	  0.0071	  0.0073	  0.0075	  0.0082	  0.0081	  0.0077	  0.0076	  0.0080	  0.0090	  0.0116	  0.0192	  0.0319	  0.0406	  0.0434	  0.0441	  0.0436	  0.0410	  0.0373	  0.0351	  0.0345	  0.0343	  0.0334	  0.0327	  0.0332	  0.0349	  0.0377	  0.0417	  0.0461	  0.0488	  0.0493	  0.0487	  0.0477	  0.0475	  0.0518	    0.06
17	17	   85.00	   72.00	    0.00	 0.06872	 0.06528	 0.01046	   30.70	    5.97	   33.90	  0.0085	  0.0091	  0.0094	  0.0097	  0.0097	  0.0093	  0.0088	  0.0086	  0.0089	  0.0102	  0.0130	  0.0221	  0.0389	  0.0513	  0.0562	  0.0587	  0.0591	  0.0569	  0.0562	  0.0624	  0.0751	  0.0847	  0.0870	  0.0877	  0.0898	  0.0935	  0.0989	  0.1056	  0.1125	  0.1169	  0.1188	  0.1188	  0.1185	  0.1198	  0.1262	    0.14
18	18	  127.00	   72.00	    0.00	 0.12556	 0.10151	 0.01179	   38.11	   20.19	   44.76	  0.0099	  0.0106	  0.0110	  0.0114	  0.0110	  0.0103	  0.0097	  0.0094	  0.0100	  0.0114	  0.0143	  0.0241	  0.0444	  0.0610	  0.0695	  0.0734	  0.0698	  0.0627	  0.0632	  0.0818	  0.1278	  0.1671	  0.1782	  0.1812	  0.1857	  0.1924	  0.2011	  0.2113	  0.2212	  0.2273	  0.2294	  0.2294	  0.2280	  0.2296	  0.2388	    0.26
19	19	  170.00	   72.00	    0.00	 0.21597	 0.15860	 0.01245	   46.79	   33.00	   58.84	  0.0121	  0.0129	  0.0135	  0.0138	  0.0127	  0.0110	  0.0099	  0.0093	  0.0099	  0.0112	  0.0136	  0.0235	  0.0490	  0.0733	  0.0889	  0.0958	  0.0870	  0.0750	  0.0767	  0.1097	  0.2048	  0.2966	  0.3259	  0.3338	  0.3417	  0.3516	  0.3641	  0.3785	  0.3921	  0.4005	  0.4035	  0.4030	  0.4012	  0.4026	  0.4143	    0.43
20	20	  212.00	   72.00	    0.00	 0.31604	 0.21553	 0.01305	   53.54	   44.96	   69.71	  0.0121	  0.0129	  0.0135	  0.0138	  0.0133	  0.0117	  0.0104	  0.0098	  0.0104	  0.0118	  0.0139	  0.0230	  0.0488	  0.0768	  0.0970	  0.1059	  0.0936	  0.0785	  0.0821	  0.1281	  0.2760	  0.4359	  0.4961	  0.5156	  0.5279	  0.5396	  0.5528	  0.5669	  0.5795	  0.5882	  0.5937	  0.5960	  0.5971	  0.6000	  0.6070	    0.62
21	21	  255.00	   72.00	    0.00	 0.46056	 0.29847	 0.01400	   61.53	   56.70	   82.26	  0.0137	  0.0146	  0.0153	  0.0157	  0.0143	  0.0118	  0.0104	  0.0099	  0.0109	  0.0130	  0.0159	  0.0241	  0.0510	  0.0859	  0.1129	  0.1249	  0.1095	  0.0909	  0.0959	  0.1554	  0.3583	  0.6094	  0.7376	  0.7916	  0.8153	  0.8262	  0.8340	  0.8403	  0.8451	  0.8498	  0.8571	  0.8630	  0.8686	  0.8717	  0.8707	    0.87
22	22	    0.00	  109.00	    0.00	 0.01651	 0.03860	 0.01406	   23.20	  -40.11	   16.14	  0.0096	  0.0102	  0.0106	  0.0109	  0.0110	  0.0109	  0.0104	  0.0104	  0.0110	  0.0126	  0.0173	  0.0346	  0.0667	  0.0884	  0.0908	  0.0817	  0.0659	  0.0465	  0.0290	  0.0185	  0.0136	  0.0112	  0.0097	  0.0088	  0.0086	  0.0087	  0.0093	  0.0104	  0.0121	  0.0130	  0.0126	  0.0115	  0.0104	  0.0103	  0.0126	    0.02
23	23	   42.00	  109.00	    0.00	 0.03555	 0.05392	 0.01172	   27.83	  -22.46	   27.13	  0.0090	  0.0095	  0.0099	  0.0103	  0.0099	  0.0094	  0.0088	  0.0085	  0.0088	  0.0103	  0.0135	  0.0258	  0.0534	  0.0764	  0.0843	  0.0840	  0.0790	  0.0686	  0.0556	  0.0455	  0.0391	  0.0354	  0.0322	  0.0300	  0.0300	  0.0316	  0.0347	  0.0393	  0.0447	  0.0477	  0.0470	  0.0450	  0.0419	  0.0408	  0.0457	    0.06
24	24	   85.00	  109.00	    0.00	 0.08066	 0.09138	 0.01275	   36.25	   -6.54	   40.28	  0.0099	  0.0105	  0.0109	  0.0112	  0.0106	  0.0099	  0.0094	  0.0093	  0.0099	  0.0115	  0.0144	  0.0252	  0.0544	  0.0839	  0.0979	  0.1036	  0.1053	  0.1018	  0.0959	  0.0933	  0.0931	  0.0927	  0.0907	  0.0894	  0.0909	  0.0948	  0.1005	  0.1079	  0.1155	  0.1203	  0.1210	  0.1197	  0.1173	  0.1175	  0.1242	    0.14
25	25	  127.00	  109.00	    0.00	 0.14259	 0.13963	 0.01484	   44.18	    5.01	   51.36	  0.0113	  0.0121	  0.0126	  0.0128	  0.0122	  0.0110	  0.0104	  0.0103	  0.0110	  0.0130	  0.0163	  0.0294	  0.0663	  0.1042	  0.1227	  0.1316	  0.1344	  0.1305	  0.1289	  0.1400	  0.1616	  0.1765	  0.1792	  0.1795	  0.1831	  0.1896	  0.1983	  0.2089	  0.2191	  0.2255	  0.2274	  0.2271	  0.2255	  0.2270	  0.2365	    0.25
26	26	  170.00	  109.00	    0.00	 0.23502	 0.20237	 0.01544	   52.10	   18.77	   64.32	  0.0125	  0.0133	  0.0139	  0.0143	  0.0133	  0.0113	  0.0101	  0.0097	  0.0104	  0.0121	  0.0151	  0.0288	  0.0738	  0.1236	  0.1517	  0.1640	  0.1602	  0.1487	  0.1491	  0.1798	  0.2514	  0.3100	  0.3255	  0.3291	  0.3356	  0.3450	  0.3574	  0.3722	  0.3860	  0.3943	  0.3975	  0.3964	  0.3938	  0.3954	  0.4077	    0.43
27	27	  212.00	  109.00	    0.00	 0.34657	 0.27104	 0.01640	   59.07	   31.92	   75.26	  0.0134	  0.0143	  0.0149	  0.0153	  0.0145	  0.0125	  0.0110	  0.0104	  0.0113	  0.0129	  0.0159	  0.0273	  0.0719	  0.1306	  0.1689	  0.1858	  0.1774	  0.1621	  0.1666	  0.2163	  0.3454	  0.4667	  0.5087	  0.5224	  0.5329	  0.5439	  0.5567	  0.5705	  0.5832	  0.5922	  0.5980	  0.6010	  0.6028	  0.6061	  0.6134	    0.63
28	28	  255.00	  109.00	    0.00	 0.50188	 0.36910	 0.01771	   67.21	   43.54	   87.89	  0.0139	  0.0149	  0.0156	  0.0159	  0.0145	  0.0119	  0.0105	  0.0103	  0.0117	  0.0148	  0.0182	  0.0290	  0.0752	  0.1472	  0.2018	  0.2257	  0.2117	  0.1901	  0.1968	  0.2646	  0.4560	  0.6664	  0.7657	  0.8049	  0.8216	  0.8296	  0.8361	  0.8417	  0.8464	  0.8510	  0.8582	  0.8640	  0.8697	  0.8733	  0.8726	    0.87
29	29	    0.00	  145.00	    0.00	 0.02089	 0.05639	 0.01808	   28.48	  -52.35	   20.73	  0.0111	  0.0118	  0.0124	  0.0126	  0.0124	  0.0119	  0.0115	  0.0115	  0.0124	  0.0143	  0.0210	  0.0478	  0.1036	  0.1434	  0.1461	  0.1275	  0.0988	  0.0656	  0.0376	  0.0221	  0.0154	  0.0124	  0.0105	  0.0094	  0.0091	  0.0092	  0.0098	  0.0113	  0.0132	  0.0142	  0.0136	  0.0123	  0.0109	  0.0108	  0.0136	    0.02
30	30	   42.00	  145.00	    0.00	 0.04171	 0.07468	 0.01516	   32.85	  -35.04	   31.45	  0.0106	  0.0114	  0.0119	  0.0121	  0.0118	  0.0109	  0.0099	  0.0096	  0.0102	  0.0117	  0.0157	  0.0340	  0.0813	  0.1245	  0.1384	  0.1343	  0.1208	  0.0984	  0.0730	  0.0548	  0.0439	  0.0377	  0.0331	  0.0300	  0.0296	  0.0312	  0.0345	  0.0400	  0.0464	  0.0497	  0.0486	  0.0455	  0.0413	  0.0397	  0.0453	    0.06
31	31	   85.00	  145.00	    0.00	 0.08946	 0.12065	 0.01614	   41.32	  -20.72	   44.93	  0.0107	  0.0115	  0.0119	  0.0123	  0.0117	  0.0109	  0.0100	  0.0097	  0.0103	  0.0119	  0.0157	  0.0341	  0.0877	  0.1416	  0.1639	  0.1683	  0.1644	  0.1499	  0.1296	  0.1141	  0.1036	  0.0966	  0.0902	  0.0859	  0.0864	  0.0905	  0.0972	  0.1071	  0.1177	  0.1234	  0.1230	  0.1191	  0.1132	  0.1108	  0.1199	    0.14
32	32	  127.00	  145.00	    0.00	 0.16078	 0.17849	 0.01727	   49.31	   -6.32	   57.50	  0.0113	  0.0119	  0.0125	  0.0128	  0.0124	  0.0112	  0.0102	  0.0099	  0.0109	  0.0127	  0.0166	  0.0348	  0.0925	  0.1547	  0.1835	  0.1953	  0.2014	  0.1968	  0.1881	  0.1872	  0.1890	  0.1890	  0.1856	  0.1832	  0.1860	  0.1924	  0.2019	  0.2142	  0.2264	  0.2336	  0.2348	  0.2327	  0.2288	  0.2288	  0.2393	    0.26
33	33	  170.00	  145.00	    0.00	 0.24831	 0.24517	 0.01840	   56.60	    5.17	   68.88	  0.0126	  0.0133	  0.0139	  0.0143	  0.0136	  0.0116	  0.0103	  0.0099	  0.0110	  0.0130	  0.0164	  0.0337	  0.0985	  0.1760	  0.2161	  0.2339	  0.2403	  0.2350	  0.2329	  0.2509	  0.2849	  0.3087	  0.3130	  0.3137	  0.3189	  0.3279	  0.3401	  0.3548	  0.3688	  0.3776	  0.3803	  0.3793	  0.3765	  0.3779	  0.3900	    0.41
34	34	  212.00	  145.00	    0.00	 0.37523	 0.33285	 0.02001	   64.39	   18.53	   80.71	  0.0137	  0.0146	  0.0152	  0.0157	  0.0148	  0.0128	  0.0112	  0.0106	  0.0120	  0.0143	  0.0176	  0.0324	  0.0986	  0.1939	  0.2528	  0.2785	  0.2794	  0.2687	  0.2729	  0.3166	  0.4101	  0.4868	  0.5110	  0.5193	  0.5278	  0.5381	  0.5511	  0.5653	  0.5784	  0.5877	  0.5936	  0.5962	  0.5978	  0.6010	  0.6092	    0.62
35	35	  255.00	  145.00	    0.00	 0.54972	 0.45627	 0.02252	   73.30	   29.67	   93.76	  0.0155	  0.0166	  0.0173	  0.0177	  0.0162	  0.0132	  0.0114	  0.0111	  0.0128	  0.0164	  0.0206	  0.0345	  0.1058	  0.2259	  0.3087	  0.3444	  0.3454	  0.3294	  0.3360	  0.4046	  0.5623	  0.7178	  0.7876	  0.8142	  0.8257	  0.8319	  0.8381	  0.8439	  0.8491	  0.8543	  0.8619	  0.8686	  0.8751	  0.8788	  0.8785	    0.88
36	36	    0.00	  182.00	    0.00	 0.02723	 0.08264	 0.02378	   34.53	  -65.52	   25.81	  0.0121	  0.0128	  0.0134	  0.0137	  0.0138	  0.0132	  0.0126	  0.0127	  0.0137	  0.0162	  0.0257	  0.0680	  0.1609	  0.2278	  0.2289	  0.1944	  0.1461	  0.0928	  0.0499	  0.0275	  0.0181	  0.0142	  0.0117	  0.0104	  0.0099	  0.0101	  0.0109	  0.0126	  0.0154	  0.0166	  0.0160	  0.0141	  0.0125	  0.0123	  0.0153	    0.03
37	37	   42.00	  182.00	    0.00	 0.05730	 0.11492	 0.02103	   40.39	  -47.98	   38.39	  0.0121	  0.0129	  0.0135	  0.0138	  0.0135	  0.0122	  0.0111	  0.0106	  0.0115	  0.0136	  0.0195	  0.0517	  0.1371	  0.2149	  0.2354	  0.2225	  0.1936	  0.1510	  0.1065	  0.0756	  0.0582	  0.0486	  0.0414	  0.0368	  0.0361	  0.0381	  0.0425	  0.0500	  0.0588	  0.0635	  0.0617	  0.0566	  0.0506	  0.0483	  0.0562	    0.08
38	38	   85.00	  182.00	    0.00	 0.11034	 0.16667	 0.02170	   47.83	  -32.42	   50.60	  0.0137	  0.0147	  0.0153	  0.0157	  0.0147	  0.0129	  0.0116	  0.0111	  0.0121	  0.0141	  0.0188	  0.0455	  0.1319	  0.2239	  0.2599	  0.2613	  0.2470	  0.2158	  0.1766	  0.1463	  0.1262	  0.1135	  0.1028	  0.0955	  0.0953	  0.1001	  0.1089	  0.1220	  0.1364	  0.1441	  0.1420	  0.1350	  0.1259	  0.1217	  0.1336	    0.17
39	39	  127.00	  182.00	    0.00	 0.18421	 0.23182	 0.02251	   55.26	  -19.18	   62.66	  0.0138	  0.0148	  0.0154	  0.0158	  0.0149	  0.0131	  0.0117	  0.0113	  0.0124	  0.0144	  0.0187	  0.0430	  0.1322	  0.2375	  0.2862	  0.2997	  0.2993	  0.2814	  0.2539	  0.2333	  0.2181	  0.2071	  0.1961	  0.1885	  0.1900	  0.1974	  0.2095	  0.2267	  0.2444	  0.2536	  0.2526	  0.2462	  0.2363	  0.2325	  0.2470	    0.28
40	40	  170.00	  182.00	    0.00	 0.29050	 0.31923	 0.02348	   63.28	   -6.53	   75.64	  0.0145	  0.0155	  0.0161	  0.0166	  0.0150	  0.0125	  0.0111	  0.0107	  0.0120	  0.0147	  0.0190	  0.0432	  0.1393	  0.2584	  0.3181	  0.3424	  0.3563	  0.3537	  0.3443	  0.3449	  0.3456	  0.3439	  0.3389	  0.3357	  0.3399	  0.3490	  0.3623	  0.3789	  0.3949	  0.4041	  0.4060	  0.4032	  0.3982	  0.3978	  0.4117	    0.44
41	41	  212.00	  182.00	    0.00	 0.41445	 0.41639	 0.02490	   70.62	    3.97	   87.08	  0.0153	  0.0163	  0.0170	  0.0174	  0.0157	  0.0127	  0.0110	  0.0106	  0.0125	  0.0158	  0.0198	  0.0404	  0.1387	  0.2832	  0.3680	  0.4037	  0.4192	  0.4176	  0.4182	  0.4426	  0.4819	  0.5098	  0.5173	  0.5209	  0.5279	  0.5379	  0.5507	  0.5652	  0.5786	  0.5874	  0.5921	  0.5938	  0.5937	  0.5958	  0.6041	    0.62
42	42	  255.00	  182.00	    0.00	 0.59324	 0.54228	 0.02749	   78.60	   17.53	   98.74	  0.0180	  0.0192	  0.0199	  0.0205	  0.0182	  0.0143	  0.0121	  0.0118	  0.0141	  0.0180	  0.0227	  0.0407	  0.1407	  0.3106	  0.4137	  0.4575	  0.4818	  0.4762	  0.4820	  0.5512	  0.6647	  0.7565	  0.7966	  0.8127	  0.8207	  0.8266	  0.8340	  0.8417	  0.8486	  0.8553	  0.8638	  0.8709	  0.8773	  0.8808	  0.8794	    0.88
43	43	    0.00	  218.00	    0.00	 0.03536	 0.11350	 0.02950	   40.17	  -75.98	   30.95	  0.0143	  0.0152	  0.0159	  0.0162	  0.0157	  0.0142	  0.0133	  0.0132	  0.0144	  0.0177	  0.0298	  0.0884	  0.2214	  0.3207	  0.3220	  0.2709	  0.2016	  0.1274	  0.0679	  0.0363	  0.0228	  0.0171	  0.0136	  0.0115	  0.0110	  0.0114	  0.0127	  0.0156	  0.0195	  0.0215	  0.0202	  0.0179	  0.0155	  0.0147	  0.0192	    0.03
44	44	   42.00	  218.00	    0.00	 0.07327	 0.15653	 0.02723	   46.52	  -57.68	   43.64	  0.0144	  0.0153	  0.0160	  0.0164	  0.0156	  0.0141	  0.0127	  0.0123	  0.0133	  0.0158	  0.0236	  0.0671	  0.1912	  0.3092	  0.3392	  0.3152	  0.2683	  0.2048	  0.1408	  0.0970	  0.0727	  0.0595	  0.0498	  0.0435	  0.0427	  0.0452	  0.0507	  0.0602	  0.0714	  0.0771	  0.0744	  0.0680	  0.0601	  0.0568	  0.0667	    0.10
45	45	   85.00	  218.00	    0.00	 0.12945	 0.21814	 0.02804	   53.83	  -44.97	   55.61	  0.0147	  0.0157	  0.0164	  0.0168	  0.0160	  0.0143	  0.0130	  0.0126	  0.0137	  0.0164	  0.0222	  0.0596	  0.1860	  0.3280	  0.3821	  0.3759	  0.3440	  0.2901	  0.2268	  0.1771	  0.1449	  0.1255	  0.1098	  0.0996	  0.0990	  0.1046	  0.1153	  0.1319	  0.1504	  0.1596	  0.1564	  0.1467	  0.1339	  0.1282	  0.1436	    0.19
46	46	  127.00	  218.00	    0.00	 0.22018	 0.30656	 0.02932	   62.22	  -31.53	   69.10	  0.0148	  0.0158	  0.0165	  0.0169	  0.0161	  0.0139	  0.0126	  0.0123	  0.0139	  0.0171	  0.0225	  0.0558	  0.1867	  0.3533	  0.4334	  0.4460	  0.4308	  0.3918	  0.3387	  0.2930	  0.2592	  0.2371	  0.2178	  0.2052	  0.2060	  0.2153	  0.2309	  0.2537	  0.2779	  0.2900	  0.2869	  0.2757	  0.2607	  0.2537	  0.2739	    0.32
47	47	  170.00	  218.00	    0.00	 0.32508	 0.39122	 0.02975	   68.84	  -17.69	   80.21	  0.0162	  0.0173	  0.0180	  0.0185	  0.0170	  0.0143	  0.0126	  0.0124	  0.0143	  0.0179	  0.0226	  0.0512	  0.1778	  0.3547	  0.4514	  0.4816	  0.4859	  0.4674	  0.4355	  0.4094	  0.3878	  0.3722	  0.3571	  0.3472	  0.3503	  0.3614	  0.3788	  0.4022	  0.4257	  0.4380	  0.4380	  0.4301	  0.4180	  0.4128	  0.4320	    0.48
48	48	  212.00	  218.00	    0.00	 0.46284	 0.50177	 0.02990	   76.18	   -5.82	   92.75	  0.0162	  0.0173	  0.0180	  0.0185	  0.0167	  0.0131	  0.0112	  0.0110	  0.0134	  0.0173	  0.0225	  0.0486	  0.1748	  0.3680	  0.4861	  0.5334	  0.5550	  0.5566	  0.5494	  0.5509	  0.5513	  0.5504	  0.5473	  0.5461	  0.5515	  0.5609	  0.5737	  0.5890	  0.6032	  0.6121	  0.6159	  0.6160	  0.6138	  0.6141	  0.6233	    0.64
49	49	  255.00	  218.00	    0.00	 0.64261	 0.63643	 0.03154	   83.78	    6.65	  104.66	  0.0180	  0.0191	  0.0199	  0.0204	  0.0180	  0.0139	  0.0119	  0.0119	  0.0149	  0.0199	  0.0252	  0.0446	  0.1607	  0.3780	  0.5277	  0.5951	  0.6364	  0.6421	  0.6471	  0.6993	  0.7609	  0.7986	  0.8135	  0.8201	  0.8245	  0.8290	  0.8360	  0.8438	  0.8511	  0.8582	  0.8672	  0.8746	  0.8816	  0.8852	  0.8837	    0.88
50	50	    0.00	  255.00	    0.00	 0.06312	 0.18062	 0.04632	   49.57	  -81.12	   36.47	  0.0201	  0.0214	  0.0223	  0.0228	  0.0226	  0.0216	  0.0210	  0.0219	  0.0243	  0.0302	  0.0521	  0.1437	  0.3322	  0.4704	  0.4753	  0.4071	  0.3144	  0.2142	  0.1269	  0.0739	  0.0483	  0.0364	  0.0285	  0.0238	  0.0230	  0.0243	  0.0281	  0.0349	  0.0437	  0.0482	  0.0459	  0.0408	  0.0345	  0.0326	  0.0408	    0.07
51	51	   42.00	  255.00	    0.00	 0.09875	 0.22137	 0.03468	   54.17	  -68.54	   51.46	  0.0161	  0.0172	  0.0179	  0.0184	  0.0175	  0.0153	  0.0139	  0.0136	  0.0152	  0.0182	  0.0269	  0.0802	  0.2534	  0.4433	  0.5006	  0.4606	  0.3853	  0.2932	  0.2008	  0.1343	  0.0963	  0.0763	  0.0619	  0.0531	  0.0521	  0.0559	  0.0640	  0.0774	  0.0932	  0.1010	  0.0971	  0.0881	  0.0766	  0.0715	  0.0846	    0.12
52	52	   85.00	  255.00	    0.00	 0.16144	 0.29023	 0.03480	   60.80	  -55.47	   62.81	  0.0164	  0.0175	  0.0182	  0.0187	  0.0177	  0.0154	  0.0140	  0.0137	  0.0154	  0.0188	  0.0255	  0.0679	  0.2334	  0.4505	  0.5473	  0.5329	  0.4736	  0.3920	  0.3004	  0.2257	  0.1771	  0.1493	  0.1278	  0.1142	  0.1136	  0.1208	  0.1344	  0.1558	  0.1796	  0.1912	  0.1868	  0.1743	  0.1574	  0.1493	  0.1693	    0.22
53	53	  127.00	  255.00	    0.00	 0.25102	 0.37984	 0.03614	   68.01	  -42.85	   74.35	  0.0177	  0.0188	  0.0196	  0.0201	  0.0184	  0.0154	  0.0138	  0.0134	  0.0154	  0.0195	  0.0258	  0.0655	  0.2331	  0.4708	  0.5986	  0.6087	  0.5674	  0.5003	  0.4178	  0.3442	  0.2914	  0.2587	  0.2323	  0.2153	  0.2155	  0.2262	  0.2447	  0.2725	  0.3022	  0.3168	  0.3123	  0.2980	  0.2781	  0.2686	  0.2929	    0.36
54	54	  170.00	  255.00	    0.00	 0.36984	 0.48393	 0.03717	   75.07	  -29.26	   85.86	  0.0190	  0.0203	  0.0212	  0.0217	  0.0195	  0.0160	  0.0139	  0.0136	  0.0158	  0.0199	  0.0259	  0.0620	  0.2270	  0.4800	  0.6362	  0.6731	  0.6536	  0.6057	  0.5415	  0.4829	  0.4381	  0.4098	  0.3859	  0.3705	  0.3717	  0.3832	  0.4023	  0.4293	  0.4570	  0.4709	  0.4692	  0.4579	  0.4403	  0.4319	  0.4540	    0.51
55	55	  212.00	  255.00	    0.00	 0.52262	 0.61521	 0.03835	   82.65	  -17.58	   98.19	  0.0197	  0.0210	  0.0219	  0.0224	  0.0197	  0.0150	  0.0126	  0.0124	  0.0154	  0.0203	  0.0268	  0.0633	  0.2324	  0.4994	  0.6795	  0.7442	  0.7522	  0.7316	  0.6933	  0.6566	  0.6260	  0.6064	  0.5900	  0.5797	  0.5809	  0.5891	  0.6030	  0.6221	  0.6410	  0.6513	  0.6525	  0.6482	  0.6399	  0.6360	  0.6493	    0.68
56	56	  255.00	  255.00	    0.00	 0.69409	 0.74751	 0.03881	   89.28	   -5.67	  109.32	  0.0188	  0.0200	  0.0209	  0.0214	  0.0182	  0.0134	  0.0114	  0.0117	  0.0154	  0.0215	  0.0284	  0.0639	  0.2300	  0.5000	  0.6946	  0.7819	  0.8194	  0.8348	  0.8375	  0.8397	  0.8364	  0.8342	  0.8325	  0.8319	  0.8322	  0.8335	  0.8370	  0.8410	  0.8443	  0.8480	  0.8543	  0.8594	  0.8655	  0.8694	  0.8703	    0.87
57	57	    0.00	    0.00	   42.00	 0.01049	 0.00726	 0.01535	    6.56	   13.58	  -14.10	  0.0108	  0.0115	  0.0120	  0.0123	  0.0148	  0.0184	  0.0202	  0.0210	  0.0212	  0.0204	  0.0177	  0.0133	  0.0097	  0.0071	  0.0055	  0.0045	  0.0041	  0.0039	  0.0039	  0.0043	  0.0052	  0.0075	  0.0101	  0.0106	  0.0093	  0.0097	  0.0139	  0.0228	  0.0343	  0.0440	  0.0503	  0.0541	  0.0563	  0.0583	  0.0619	    0.07
58	58	   42.00	    0.00	   42.00	 0.02550	 0.01509	 0.01540	   12.66	   25.42	   -3.62	  0.0152	  0.0162	  0.0170	  0.0173	  0.0190	  0.0219	  0.0223	  0.0215	  0.0201	  0.0180	  0.0147	  0.0113	  0.0089	  0.0064	  0.0044	  0.0039	  0.0040	  0.0039	  0.0043	  0.0074	  0.0159	  0.0269	  0.0346	  0.0380	  0.0389	  0.0409	  0.0457	  0.0528	  0.0597	  0.0645	  0.0674	  0.0687	  0.0696	  0.0712	  0.0751	    0.08
59	59	   85.00	    0.00	   42.00	 0.05441	 0.02991	 0.01574	   20.01	   36.57	    8.64	  0.0200	  0.0213	  0.0222	  0.0228	  0.0253	  0.0271	  0.0247	  0.0215	  0.0186	  0.0156	  0.0127	  0.0104	  0.0081	  0.0060	  0.0044	  0.0041	  0.0041	  0.0039	  0.0046	  0.0091	  0.0294	  0.0619	  0.0824	  0.0914	  0.0961	  0.1009	  0.1080	  0.1167	  0.1250	  0.1309	  0.1338	  0.1348	  0.1355	  0.1375	  0.1434	    0.15
60	60	  127.00	    0.00	   42.00	 0.10325	 0.05533	 0.01661	   28.20	   46.90	   21.80	  0.0260	  0.0278	  0.0290	  0.0297	  0.0322	  0.0322	  0.0267	  0.0215	  0.0177	  0.0149	  0.0129	  0.0107	  0.0087	  0.0066	  0.0053	  0.0049	  0.0047	  0.0045	  0.0054	  0.0115	  0.0502	  0.1210	  0.1647	  0.1826	  0.1922	  0.2009	  0.2118	  0.2245	  0.2362	  0.2439	  0.2467	  0.2474	  0.2470	  0.2493	  0.2585	    0.27
61	61	  170.00	    0.00	   42.00	 0.17871	 0.09406	 0.01843	   36.75	   57.68	   34.64	  0.0344	  0.0367	  0.0382	  0.0393	  0.0415	  0.0391	  0.0299	  0.0227	  0.0179	  0.0151	  0.0136	  0.0114	  0.0091	  0.0071	  0.0060	  0.0055	  0.0050	  0.0048	  0.0056	  0.0137	  0.0788	  0.2107	  0.2936	  0.3271	  0.3444	  0.3577	  0.3722	  0.3881	  0.4026	  0.4117	  0.4155	  0.4154	  0.4140	  0.4157	  0.4273	    0.44
62	62	  212.00	    0.00	   42.00	 0.26303	 0.13594	 0.01561	   43.64	   67.19	   49.54	  0.0363	  0.0387	  0.0403	  0.0415	  0.0424	  0.0367	  0.0253	  0.0177	  0.0135	  0.0115	  0.0107	  0.0088	  0.0071	  0.0058	  0.0052	  0.0048	  0.0045	  0.0047	  0.0055	  0.0127	  0.0973	  0.2983	  0.4378	  0.4988	  0.5285	  0.5468	  0.5622	  0.5767	  0.5892	  0.5975	  0.6025	  0.6046	  0.6059	  0.6082	  0.6148	    0.63
63	63	  255.00	    0.00	   42.00	 0.35988	 0.18115	 0.01267	   49.64	   77.08	   63.46	  0.0351	  0.0374	  0.0390	  0.0400	  0.0399	  0.0320	  0.0199	  0.0131	  0.0101	  0.0089	  0.0081	  0.0069	  0.0055	  0.0047	  0.0041	  0.0037	  0.0037	  0.0041	  0.0049	  0.0102	  0.0968	  0.3563	  0.5789	  0.7000	  0.7650	  0.7995	  0.8193	  0.8317	  0.8400	  0.8466	  0.8544	  0.8608	  0.8668	  0.8694	  0.8676	    0.86
64	64	    0.00	   36.00	   42.00	 0.00647	 0.00841	 0.01676	    7.60	   -6.60	  -13.90	  0.0104	  0.0111	  0.0115	  0.0118	  0.0135	  0.0166	  0.0192	  0.0210	  0.0223	  0.0233	  0.0232	  0.0216	  0.0195	  0.0173	  0.0148	  0.0123	  0.0103	  0.0080	  0.0057	  0.0044	  0.0039	  0.0037	  0.0035	  0.0033	  0.0032	  0.0033	  0.0037	  0.0044	  0.0052	  0.0059	  0.0059	  0.0056	  0.0053	  0.0054	  0.0063	    0.01
65	65	   42.00	   36.00	   42.00	 0.02349	 0.02058	 0.01959	   15.79	    7.94	   -2.68	  0.0136	  0.0145	  0.0150	  0.0154	  0.0178	  0.0214	  0.0233	  0.0243	  0.0254	  0.0261	  0.0256	  0.0243	  0.0226	  0.0199	  0.0171	  0.0162	  0.0166	  0.0157	  0.0149	  0.0173	  0.0215	  0.0248	  0.0264	  0.0266	  0.0270	  0.0285	  0.0318	  0.0363	  0.0411	  0.0442	  0.0453	  0.0453	  0.0450	  0.0457	  0.0495	    0.06
66	66	   85.00	   36.00	   42.00	 0.05976	 0.04401	 0.02321	   24.96	   21.33	    9.80	  0.0196	  0.0209	  0.0217	  0.0224	  0.0249	  0.0280	  0.0283	  0.0281	  0.0280	  0.0281	  0.0291	  0.0308	  0.0316	  0.0285	  0.0247	  0.0237	  0.0239	  0.0215	  0.0215	  0.0316	  0.0540	  0.0743	  0.0821	  0.0844	  0.0868	  0.0909	  0.0972	  0.1053	  0.1134	  0.1185	  0.1203	  0.1198	  0.1189	  0.1202	  0.1276	    0.14
67	67	  127.00	   36.00	   42.00	 0.11215	 0.07496	 0.02272	   32.91	   33.25	   23.93	  0.0224	  0.0239	  0.0249	  0.0256	  0.0277	  0.0290	  0.0274	  0.0261	  0.0254	  0.0254	  0.0278	  0.0330	  0.0369	  0.0347	  0.0311	  0.0304	  0.0292	  0.0252	  0.0258	  0.0432	  0.0936	  0.1472	  0.1689	  0.1758	  0.1811	  0.1879	  0.1977	  0.2096	  0.2210	  0.2280	  0.2303	  0.2304	  0.2291	  0.2310	  0.2403	    0.26
68	68	  170.00	   36.00	   42.00	 0.19423	 0.12179	 0.02409	   41.50	   45.25	   37.56	  0.0266	  0.0284	  0.0296	  0.0304	  0.0320	  0.0320	  0.0290	  0.0269	  0.0254	  0.0256	  0.0287	  0.0363	  0.0429	  0.0415	  0.0386	  0.0380	  0.0349	  0.0289	  0.0302	  0.0569	  0.1495	  0.2595	  0.3068	  0.3228	  0.3331	  0.3436	  0.3562	  0.3708	  0.3841	  0.3926	  0.3959	  0.3956	  0.3942	  0.3965	  0.4082	    0.43
69	69	  212.00	   36.00	   42.00	 0.29281	 0.17665	 0.02468	   49.09	   55.53	   50.14	  0.0289	  0.0308	  0.0321	  0.0330	  0.0344	  0.0336	  0.0293	  0.0266	  0.0250	  0.0252	  0.0291	  0.0381	  0.0469	  0.0468	  0.0452	  0.0452	  0.0402	  0.0325	  0.0346	  0.0697	  0.2087	  0.3902	  0.4752	  0.5063	  0.5231	  0.5361	  0.5492	  0.5628	  0.5749	  0.5832	  0.5879	  0.5899	  0.5907	  0.5937	  0.6012	    0.61
70	70	  255.00	   36.00	   42.00	 0.42690	 0.24920	 0.02671	   56.99	   66.43	   62.12	  0.0338	  0.0361	  0.0377	  0.0386	  0.0397	  0.0375	  0.0318	  0.0280	  0.0261	  0.0263	  0.0305	  0.0417	  0.0535	  0.0545	  0.0525	  0.0525	  0.0463	  0.0369	  0.0398	  0.0853	  0.2747	  0.5440	  0.6935	  0.7629	  0.7983	  0.8170	  0.8292	  0.8382	  0.8446	  0.8500	  0.8573	  0.8629	  0.8680	  0.8704	  0.8686	    0.86
71	71	    0.00	   72.00	   42.00	 0.00813	 0.01518	 0.02028	   12.72	  -22.00	   -8.64	  0.0124	  0.0132	  0.0138	  0.0141	  0.0157	  0.0181	  0.0204	  0.0226	  0.0245	  0.0267	  0.0305	  0.0362	  0.0403	  0.0397	  0.0348	  0.0283	  0.0215	  0.0142	  0.0084	  0.0055	  0.0044	  0.0039	  0.0037	  0.0036	  0.0035	  0.0036	  0.0038	  0.0041	  0.0045	  0.0049	  0.0045	  0.0043	  0.0040	  0.0043	  0.0050	    0.01
72	72	   42.00	   72.00	   42.00	 0.03322	 0.03859	 0.02776	   23.20	   -6.27	    3.02	  0.0170	  0.0181	  0.0188	  0.0193	  0.0223	  0.0267	  0.0293	  0.0315	  0.0336	  0.0363	  0.0399	  0.0448	  0.0496	  0.0500	  0.0473	  0.0452	  0.0439	  0.0399	  0.0350	  0.0331	  0.0331	  0.0331	  0.0323	  0.0314	  0.0315	  0.0332	  0.0367	  0.0419	  0.0473	  0.0505	  0.0509	  0.0499	  0.0483	  0.0485	  0.0532	    0.06
73	73	   85.00	   72.00	   42.00	 0.07609	 0.07282	 0.03278	   32.44	    5.67	   15.27	  0.0219	  0.0233	  0.0243	  0.0250	  0.0283	  0.0325	  0.0342	  0.0360	  0.0378	  0.0406	  0.0462	  0.0564	  0.0664	  0.0680	  0.0648	  0.0642	  0.0652	  0.0615	  0.0593	  0.0671	  0.0807	  0.0898	  0.0913	  0.0910	  0.0929	  0.0971	  0.1036	  0.1119	  0.1200	  0.1250	  0.1261	  0.1251	  0.1234	  0.1248	  0.1326	    0.15
74	74	  127.00	   72.00	   42.00	 0.13996	 0.11816	 0.03578	   40.92	   17.42	   27.88	  0.0276	  0.0294	  0.0307	  0.0314	  0.0338	  0.0367	  0.0368	  0.0375	  0.0384	  0.0410	  0.0488	  0.0662	  0.0851	  0.0898	  0.0865	  0.0862	  0.0860	  0.0792	  0.0781	  0.0988	  0.1424	  0.1781	  0.1892	  0.1916	  0.1958	  0.2028	  0.2127	  0.2251	  0.2370	  0.2442	  0.2462	  0.2453	  0.2437	  0.2454	  0.2560	    0.27
75	75	  170.00	   72.00	   42.00	 0.21086	 0.15957	 0.03127	   46.92	   30.05	   41.30	  0.0267	  0.0285	  0.0298	  0.0305	  0.0319	  0.0327	  0.0311	  0.0307	  0.0311	  0.0332	  0.0413	  0.0617	  0.0866	  0.0948	  0.0935	  0.0941	  0.0913	  0.0815	  0.0821	  0.1161	  0.2012	  0.2808	  0.3088	  0.3173	  0.3249	  0.3343	  0.3462	  0.3604	  0.3734	  0.3816	  0.3845	  0.3840	  0.3823	  0.3846	  0.3959	    0.42
76	76	  212.00	   72.00	   42.00	 0.31514	 0.22185	 0.03336	   54.22	   41.72	   52.43	  0.0296	  0.0316	  0.0330	  0.0338	  0.0356	  0.0358	  0.0333	  0.0322	  0.0321	  0.0340	  0.0422	  0.0658	  0.0969	  0.1079	  0.1071	  0.1080	  0.1031	  0.0905	  0.0927	  0.1421	  0.2801	  0.4242	  0.4826	  0.5029	  0.5153	  0.5265	  0.5389	  0.5523	  0.5644	  0.5724	  0.5771	  0.5791	  0.5798	  0.5825	  0.5906	    0.60
77	77	  255.00	   72.00	   42.00	 0.46882	 0.31392	 0.03475	   62.84	   53.35	   66.35	  0.0328	  0.0350	  0.0365	  0.0375	  0.0379	  0.0363	  0.0327	  0.0311	  0.0311	  0.0336	  0.0433	  0.0739	  0.1173	  0.1324	  0.1272	  0.1269	  0.1232	  0.1073	  0.1116	  0.1846	  0.3870	  0.6144	  0.7297	  0.7829	  0.8098	  0.8242	  0.8349	  0.8433	  0.8497	  0.8553	  0.8624	  0.8679	  0.8733	  0.8758	  0.8734	    0.87
78	78	    0.00	  109.00	   42.00	 0.01113	 0.02698	 0.02579	   18.79	  -36.94	   -3.01	  0.0146	  0.0156	  0.0161	  0.0166	  0.0184	  0.0206	  0.0230	  0.0254	  0.0276	  0.0311	  0.0400	  0.0581	  0.0764	  0.0801	  0.0711	  0.0565	  0.0403	  0.0243	  0.0126	  0.0074	  0.0055	  0.0048	  0.0044	  0.0043	  0.0042	  0.0043	  0.0044	  0.0047	  0.0051	  0.0054	  0.0050	  0.0048	  0.0045	  0.0049	  0.0061	    0.01
79	79	   42.00	  109.00	   42.00	 0.04095	 0.05850	 0.03444	   29.03	  -19.65	    8.26	  0.0203	  0.0217	  0.0226	  0.0232	  0.0261	  0.0300	  0.0324	  0.0353	  0.0381	  0.0422	  0.0512	  0.0687	  0.0878	  0.0944	  0.0908	  0.0848	  0.0781	  0.0662	  0.0528	  0.0447	  0.0405	  0.0381	  0.0357	  0.0337	  0.0336	  0.0353	  0.0389	  0.0447	  0.0512	  0.0549	  0.0543	  0.0520	  0.0490	  0.0481	  0.0539	    0.07
80	80	   85.00	  109.00	   42.00	 0.09399	 0.10764	 0.04011	   39.18	   -7.73	   22.15	  0.0243	  0.0258	  0.0269	  0.0276	  0.0305	  0.0345	  0.0367	  0.0396	  0.0429	  0.0476	  0.0592	  0.0829	  0.1100	  0.1215	  0.1205	  0.1194	  0.1195	  0.1124	  0.1036	  0.1029	  0.1045	  0.1044	  0.1019	  0.0996	  0.1007	  0.1049	  0.1119	  0.1213	  0.1308	  0.1364	  0.1370	  0.1348	  0.1314	  0.1315	  0.1407	    0.16
81	81	  127.00	  109.00	   42.00	 0.16268	 0.16390	 0.04440	   47.48	    2.66	   33.94	  0.0285	  0.0304	  0.0317	  0.0325	  0.0351	  0.0386	  0.0398	  0.0421	  0.0451	  0.0500	  0.0634	  0.0950	  0.1340	  0.1519	  0.1524	  0.1537	  0.1564	  0.1500	  0.1457	  0.1590	  0.1814	  0.1959	  0.1978	  0.1971	  0.2003	  0.2070	  0.2167	  0.2289	  0.2407	  0.2477	  0.2490	  0.2476	  0.2451	  0.2465	  0.2576	    0.28
82	82	  170.00	  109.00	   42.00	 0.24397	 0.21892	 0.04120	   53.91	   14.90	   46.90	  0.0278	  0.0296	  0.0309	  0.0316	  0.0336	  0.0355	  0.0351	  0.0362	  0.0382	  0.0427	  0.0566	  0.0941	  0.1450	  0.1704	  0.1743	  0.1771	  0.1768	  0.1664	  0.1651	  0.1967	  0.2612	  0.3125	  0.3273	  0.3310	  0.3370	  0.3458	  0.3575	  0.3714	  0.3842	  0.3920	  0.3949	  0.3943	  0.3925	  0.3946	  0.4061	    0.43
83	83	  212.00	  109.00	   42.00	 0.35418	 0.29175	 0.04447	   60.93	   26.47	   57.11	  0.0317	  0.0338	  0.0353	  0.0362	  0.0384	  0.0389	  0.0376	  0.0379	  0.0394	  0.0436	  0.0588	  0.1037	  0.1670	  0.1975	  0.2009	  0.2036	  0.2010	  0.1860	  0.1876	  0.2417	  0.3613	  0.4671	  0.5046	  0.5171	  0.5264	  0.5361	  0.5476	  0.5605	  0.5724	  0.5801	  0.5847	  0.5860	  0.5864	  0.5886	  0.5963	    0.61
84	84	  255.00	  109.00	   42.00	 0.51170	 0.39274	 0.04603	   68.95	   38.65	   70.05	  0.0344	  0.0367	  0.0383	  0.0393	  0.0402	  0.0395	  0.0372	  0.0367	  0.0381	  0.0420	  0.0578	  0.1111	  0.1953	  0.2352	  0.2309	  0.2313	  0.2331	  0.2149	  0.2192	  0.3037	  0.4886	  0.6679	  0.7542	  0.7937	  0.8139	  0.8253	  0.8349	  0.8428	  0.8490	  0.8544	  0.8617	  0.8674	  0.8724	  0.8748	  0.8732	    0.87
85	85	    0.00	  145.00	   42.00	 0.01459	 0.04224	 0.03289	   24.40	  -50.47	    1.34	  0.0168	  0.0179	  0.0186	  0.0191	  0.0209	  0.0234	  0.0259	  0.0290	  0.0317	  0.0369	  0.0519	  0.0867	  0.1251	  0.1355	  0.1203	  0.0938	  0.0644	  0.0364	  0.0171	  0.0091	  0.0063	  0.0054	  0.0049	  0.0047	  0.0046	  0.0046	  0.0048	  0.0050	  0.0056	  0.0060	  0.0056	  0.0050	  0.0050	  0.0056	  0.0070	    0.01
86	86	   42.00	  145.00	   42.00	 0.04904	 0.08749	 0.04363	   35.49	  -36.72	   13.72	  0.0244	  0.0260	  0.0271	  0.0279	  0.0303	  0.0336	  0.0362	  0.0397	  0.0430	  0.0487	  0.0653	  0.1043	  0.1512	  0.1716	  0.1663	  0.1514	  0.1314	  0.1033	  0.0744	  0.0558	  0.0460	  0.0407	  0.0364	  0.0333	  0.0328	  0.0345	  0.0385	  0.0450	  0.0525	  0.0565	  0.0556	  0.0522	  0.0477	  0.0461	  0.0527	    0.07
87	87	   85.00	  145.00	   42.00	 0.10651	 0.14548	 0.04823	   45.01	  -23.06	   27.58	  0.0271	  0.0289	  0.0302	  0.0309	  0.0334	  0.0368	  0.0389	  0.0422	  0.0459	  0.0523	  0.0703	  0.1161	  0.1752	  0.2052	  0.2061	  0.1991	  0.1890	  0.1671	  0.1412	  0.1258	  0.1170	  0.1110	  0.1046	  0.0999	  0.1002	  0.1044	  0.1120	  0.1234	  0.1356	  0.1423	  0.1416	  0.1370	  0.1306	  0.1288	  0.1388	    0.16
88	88	  127.00	  145.00	   42.00	 0.18155	 0.21072	 0.05113	   53.03	  -10.95	   39.87	  0.0292	  0.0311	  0.0324	  0.0333	  0.0356	  0.0389	  0.0404	  0.0436	  0.0475	  0.0541	  0.0731	  0.1229	  0.1910	  0.2289	  0.2356	  0.2363	  0.2370	  0.2253	  0.2105	  0.2081	  0.2090	  0.2072	  0.2021	  0.1982	  0.2003	  0.2068	  0.2167	  0.2300	  0.2433	  0.2508	  0.2512	  0.2479	  0.2432	  0.2425	  0.2545	    0.28
89	89	  170.00	  145.00	   42.00	 0.26877	 0.27523	 0.04816	   59.46	    1.38	   52.52	  0.0277	  0.0296	  0.0308	  0.0316	  0.0334	  0.0354	  0.0359	  0.0381	  0.0412	  0.0475	  0.0667	  0.1215	  0.2014	  0.2474	  0.2570	  0.2621	  0.2678	  0.2605	  0.2558	  0.2756	  0.3073	  0.3278	  0.3311	  0.3310	  0.3353	  0.3435	  0.3550	  0.3689	  0.3820	  0.3898	  0.3920	  0.3906	  0.3880	  0.3895	  0.4017	    0.42
90	90	  212.00	  145.00	   42.00	 0.38632	 0.35900	 0.05269	   66.44	   13.25	   62.21	  0.0328	  0.0350	  0.0365	  0.0375	  0.0389	  0.0395	  0.0389	  0.0404	  0.0434	  0.0496	  0.0700	  0.1328	  0.2307	  0.2867	  0.2958	  0.3006	  0.3049	  0.2929	  0.2927	  0.3403	  0.4257	  0.4914	  0.5129	  0.5202	  0.5276	  0.5367	  0.5481	  0.5610	  0.5729	  0.5809	  0.5854	  0.5872	  0.5881	  0.5908	  0.5986	    0.61
91	91	  255.00	  145.00	   42.00	 0.55284	 0.47510	 0.05582	   74.51	   25.23	   74.57	  0.0360	  0.0384	  0.0401	  0.0411	  0.0414	  0.0407	  0.0389	  0.0398	  0.0426	  0.0487	  0.0707	  0.1458	  0.2710	  0.3424	  0.3464	  0.3491	  0.3559	  0.3389	  0.3419	  0.4230	  0.5757	  0.7099	  0.7729	  0.8017	  0.8163	  0.8248	  0.8328	  0.8397	  0.8449	  0.8495	  0.8559	  0.8611	  0.8655	  0.8677	  0.8655	    0.86
92	92	    0.00	  182.00	   42.00	 0.01873	 0.06220	 0.04098	   29.96	  -63.69	    5.73	  0.0199	  0.0212	  0.0221	  0.0227	  0.0243	  0.0263	  0.0287	  0.0325	  0.0359	  0.0420	  0.0633	  0.1192	  0.1892	  0.2129	  0.1881	  0.1432	  0.0948	  0.0509	  0.0225	  0.0110	  0.0074	  0.0061	  0.0054	  0.0051	  0.0049	  0.0049	  0.0049	  0.0054	  0.0060	  0.0065	  0.0061	  0.0058	  0.0055	  0.0065	  0.0084	    0.01
93	93	   42.00	  182.00	   42.00	 0.06195	 0.12806	 0.05410	   42.47	  -51.77	   20.17	  0.0275	  0.0293	  0.0305	  0.0314	  0.0339	  0.0371	  0.0395	  0.0435	  0.0477	  0.0550	  0.0794	  0.1450	  0.2341	  0.2785	  0.2720	  0.2432	  0.2034	  0.1526	  0.1032	  0.0720	  0.0558	  0.0473	  0.0408	  0.0365	  0.0358	  0.0377	  0.0421	  0.0496	  0.0586	  0.0632	  0.0615	  0.0570	  0.0513	  0.0490	  0.0572	    0.08
94	94	   85.00	  182.00	   42.00	 0.12743	 0.20051	 0.05853	   51.90	  -37.97	   34.27	  0.0302	  0.0321	  0.0335	  0.0344	  0.0366	  0.0391	  0.0411	  0.0448	  0.0493	  0.0574	  0.0837	  0.1574	  0.2638	  0.3246	  0.3302	  0.3135	  0.2859	  0.2418	  0.1928	  0.1587	  0.1380	  0.1253	  0.1142	  0.1068	  0.1063	  0.1107	  0.1194	  0.1328	  0.1475	  0.1549	  0.1530	  0.1461	  0.1362	  0.1326	  0.1452	    0.18
95	95	  127.00	  182.00	   42.00	 0.19884	 0.26346	 0.05725	   58.36	  -25.13	   46.03	  0.0297	  0.0317	  0.0331	  0.0339	  0.0355	  0.0375	  0.0386	  0.0419	  0.0461	  0.0541	  0.0798	  0.1549	  0.2685	  0.3384	  0.3527	  0.3476	  0.3349	  0.3052	  0.2684	  0.2442	  0.2285	  0.2171	  0.2055	  0.1975	  0.1980	  0.2047	  0.2160	  0.2325	  0.2495	  0.2587	  0.2573	  0.2506	  0.2410	  0.2372	  0.2516	    0.29
96	96	  170.00	  182.00	   42.00	 0.29368	 0.33847	 0.05411	   64.84	  -12.04	   58.74	  0.0281	  0.0300	  0.0313	  0.0321	  0.0331	  0.0340	  0.0345	  0.0372	  0.0412	  0.0490	  0.0730	  0.1473	  0.2673	  0.3458	  0.3676	  0.3738	  0.3780	  0.3665	  0.3496	  0.3468	  0.3460	  0.3421	  0.3346	  0.3291	  0.3318	  0.3401	  0.3530	  0.3697	  0.3862	  0.3954	  0.3964	  0.3924	  0.3859	  0.3849	  0.3993	    0.43
97	97	  212.00	  182.00	   42.00	 0.41719	 0.43359	 0.05869	   71.79	   -0.26	   68.51	  0.0316	  0.0338	  0.0352	  0.0361	  0.0371	  0.0373	  0.0371	  0.0393	  0.0434	  0.0512	  0.0766	  0.1596	  0.2991	  0.3891	  0.4094	  0.4176	  0.4288	  0.4208	  0.4160	  0.4456	  0.4851	  0.5087	  0.5143	  0.5159	  0.5213	  0.5296	  0.5411	  0.5549	  0.5677	  0.5761	  0.5803	  0.5814	  0.5810	  0.5822	  0.5918	    0.61
98	98	  255.00	  182.00	   42.00	 0.59879	 0.56802	 0.06882	   80.07	   12.50	   78.25	  0.0404	  0.0432	  0.0451	  0.0463	  0.0467	  0.0460	  0.0449	  0.0467	  0.0509	  0.0590	  0.0865	  0.1809	  0.3483	  0.4593	  0.4780	  0.4847	  0.4985	  0.4859	  0.4870	  0.5562	  0.6646	  0.7499	  0.7898	  0.8086	  0.8187	  0.8255	  0.8328	  0.8399	  0.8454	  0.8505	  0.8571	  0.8626	  0.8677	  0.8702	  0.8694	    0.87
99	99	    0.00	  218.00	   42.00	 0.02392	 0.08994	 0.04813	   35.97	  -78.21	   12.04	  0.0208	  0.0221	  0.0231	  0.0237	  0.0252	  0.0266	  0.0285	  0.0323	  0.0360	  0.0439	  0.0727	  0.1558	  0.2727	  0.3192	  0.2835	  0.2138	  0.1389	  0.0727	  0.0305	  0.0138	  0.0086	  0.0067	  0.0059	  0.0054	  0.0052	  0.0052	  0.0052	  0.0058	  0.0067	  0.0074	  0.0070	  0.0064	  0.0062	  0.0066	  0.0089	    0.02
100	100	   42.00	  218.00	   42.00	 0.07414	 0.17321	 0.06242	   48.67	  -66.10	   26.91	  0.0292	  0.0311	  0.0325	  0.0333	  0.0353	  0.0377	  0.0398	  0.0438	  0.0483	  0.0567	  0.0879	  0.1815	  0.3252	  0.4062	  0.3999	  0.3515	  0.2853	  0.2065	  0.1333	  0.0874	  0.0640	  0.0520	  0.0433	  0.0379	  0.0369	  0.0389	  0.0437	  0.0522	  0.0626	  0.0680	  0.0654	  0.0596	  0.0522	  0.0501	  0.0591	    0.09
101	101	   85.00	  218.00	   42.00	 0.13303	 0.23772	 0.06185	   55.86	  -51.38	   39.58	  0.0297	  0.0316	  0.0331	  0.0339	  0.0351	  0.0366	  0.0377	  0.0410	  0.0454	  0.0539	  0.0836	  0.1786	  0.3324	  0.4305	  0.4418	  0.4114	  0.3623	  0.2944	  0.2225	  0.1709	  0.1401	  0.1223	  0.1081	  0.0988	  0.0978	  0.1022	  0.1115	  0.1261	  0.1427	  0.1512	  0.1481	  0.1396	  0.1278	  0.1227	  0.1365	    0.18
102	102	  127.00	  218.00	   42.00	 0.21265	 0.31522	 0.06219	   62.94	  -38.19	   51.63	  0.0302	  0.0322	  0.0336	  0.0345	  0.0354	  0.0358	  0.0364	  0.0395	  0.0437	  0.0522	  0.0813	  0.1772	  0.3413	  0.4552	  0.4812	  0.4670	  0.4362	  0.3845	  0.3228	  0.2749	  0.2426	  0.2217	  0.2036	  0.1914	  0.1909	  0.1980	  0.2111	  0.2310	  0.2526	  0.2632	  0.2603	  0.2501	  0.2362	  0.2291	  0.2465	    0.29
103	103	  170.00	  218.00	   42.00	 0.32467	 0.41436	 0.06570	   70.48	  -24.91	   63.07	  0.0325	  0.0347	  0.0362	  0.0371	  0.0378	  0.0380	  0.0382	  0.0411	  0.0459	  0.0549	  0.0846	  0.1837	  0.3564	  0.4816	  0.5203	  0.5221	  0.5116	  0.4819	  0.4406	  0.4081	  0.3828	  0.3643	  0.3468	  0.3349	  0.3356	  0.3447	  0.3601	  0.3820	  0.4043	  0.4160	  0.4150	  0.4069	  0.3938	  0.3884	  0.4061	    0.45
104	104	  212.00	  218.00	   42.00	 0.45921	 0.52216	 0.07059	   77.41	  -12.16	   72.93	  0.0360	  0.0384	  0.0400	  0.0411	  0.0411	  0.0408	  0.0408	  0.0437	  0.0488	  0.0587	  0.0909	  0.1973	  0.3824	  0.5161	  0.5587	  0.5687	  0.5732	  0.5599	  0.5416	  0.5407	  0.5423	  0.5404	  0.5340	  0.5294	  0.5324	  0.5404	  0.5531	  0.5696	  0.5855	  0.5949	  0.5978	  0.5961	  0.5914	  0.5901	  0.6015	    0.63
105	105	  255.00	  218.00	   42.00	 0.64882	 0.67061	 0.07762	   85.54	    0.50	   84.11	  0.0412	  0.0439	  0.0458	  0.0470	  0.0466	  0.0451	  0.0443	  0.0472	  0.0529	  0.0636	  0.0976	  0.2129	  0.4238	  0.5817	  0.6274	  0.6421	  0.6594	  0.6523	  0.6503	  0.6964	  0.7537	  0.7918	  0.8099	  0.8190	  0.8248	  0.8297	  0.8361	  0.8424	  0.8477	  0.8526	  0.8594	  0.8651	  0.8707	  0.8737	  0.8731	    0.87
106	106	    0.00	  255.00	   42.00	 0.02917	 0.11677	 0.04753	   40.69	  -88.58	   20.52	  0.0200	  0.0214	  0.0223	  0.0228	  0.0232	  0.0230	  0.0237	  0.0260	  0.0290	  0.0360	  0.0635	  0.1601	  0.3241	  0.4110	  0.3767	  0.2866	  0.1870	  0.0995	  0.0424	  0.0187	  0.0110	  0.0082	  0.0069	  0.0061	  0.0059	  0.0059	  0.0061	  0.0069	  0.0082	  0.0090	  0.0085	  0.0077	  0.0074	  0.0082	  0.0105	    0.02
107	107	   42.00	  255.00	   42.00	 0.08160	 0.20741	 0.06299	   52.66	  -76.44	   33.54	  0.0281	  0.0300	  0.0312	  0.0321	  0.0331	  0.0342	  0.0353	  0.0382	  0.0425	  0.0509	  0.0815	  0.1884	  0.3780	  0.5035	  0.5048	  0.4401	  0.3510	  0.2508	  0.1586	  0.0988	  0.0681	  0.0529	  0.0425	  0.0362	  0.0352	  0.0376	  0.0430	  0.0525	  0.0642	  0.0701	  0.0671	  0.0602	  0.0519	  0.0490	  0.0595	    0.09
108	108	   85.00	  255.00	   42.00	 0.13984	 0.28317	 0.06343	   60.17	  -65.64	   46.30	  0.0287	  0.0305	  0.0319	  0.0327	  0.0330	  0.0328	  0.0330	  0.0355	  0.0395	  0.0476	  0.0772	  0.1863	  0.3943	  0.5517	  0.5795	  0.5333	  0.4581	  0.3641	  0.2647	  0.1887	  0.1427	  0.1172	  0.0983	  0.0864	  0.0853	  0.0908	  0.1017	  0.1195	  0.1398	  0.1499	  0.1458	  0.1348	  0.1200	  0.1133	  0.1301	    0.18
109	109	  127.00	  255.00	   42.00	 0.23069	 0.38215	 0.06761	   68.18	  -52.44	   58.27	  0.0303	  0.0324	  0.0338	  0.0347	  0.0346	  0.0336	  0.0333	  0.0358	  0.0402	  0.0492	  0.0816	  0.1998	  0.4245	  0.6023	  0.6509	  0.6236	  0.5668	  0.4883	  0.3953	  0.3150	  0.2598	  0.2265	  0.2001	  0.1829	  0.1819	  0.1906	  0.2069	  0.2323	  0.2598	  0.2729	  0.2679	  0.2534	  0.2341	  0.2242	  0.2464	    0.31
110	110	  170.00	  255.00	   42.00	 0.35413	 0.49815	 0.07472	   75.96	  -38.29	   68.74	  0.0348	  0.0371	  0.0387	  0.0398	  0.0395	  0.0382	  0.0378	  0.0406	  0.0458	  0.0561	  0.0906	  0.2134	  0.4482	  0.6438	  0.7133	  0.7050	  0.6665	  0.6082	  0.5338	  0.4659	  0.4147	  0.3820	  0.3549	  0.3369	  0.3359	  0.3451	  0.3627	  0.3887	  0.4160	  0.4297	  0.4266	  0.4141	  0.3952	  0.3856	  0.4062	    0.46
111	111	  212.00	  255.00	   42.00	 0.50169	 0.62224	 0.08156	   83.04	  -24.72	   78.27	  0.0393	  0.0420	  0.0438	  0.0449	  0.0448	  0.0436	  0.0433	  0.0464	  0.0523	  0.0637	  0.0999	  0.2248	  0.4623	  0.6680	  0.7558	  0.7681	  0.7517	  0.7183	  0.6714	  0.6281	  0.5933	  0.5708	  0.5521	  0.5401	  0.5401	  0.5477	  0.5617	  0.5817	  0.6019	  0.6130	  0.6140	  0.6083	  0.5982	  0.5929	  0.6064	    0.64
112	112	  255.00	  255.00	   42.00	 0.70143	 0.78130	 0.09056	   90.84	  -10.83	   88.45	  0.0446	  0.0476	  0.0496	  0.0509	  0.0508	  0.0496	  0.0499	  0.0541	  0.0615	  0.0750	  0.1144	  0.2420	  0.4818	  0.6948	  0.7978	  0.8313	  0.8418	  0.8426	  0.8375	  0.8354	  0.8302	  0.8275	  0.8268	  0.8281	  0.8310	  0.8351	  0.8416	  0.8484	  0.8543	  0.8598	  0.8671	  0.8731	  0.8787	  0.8823	  0.8830	    0.88
113	113	    0.00	    0.00	   85.00	 0.01819	 0.01071	 0.03846	    9.57	   22.86	  -27.88	  0.0281	  0.0300	  0.0312	  0.0320	  0.0383	  0.0487	  0.0538	  0.0552	  0.0538	  0.0495	  0.0404	  0.0269	  0.0164	  0.0104	  0.0069	  0.0052	  0.0047	  0.0046	  0.0044	  0.0049	  0.0063	  0.0099	  0.0147	  0.0156	  0.0132	  0.0134	  0.0208	  0.0374	  0.0600	  0.0799	  0.0927	  0.0999	  0.1029	  0.1057	  0.1119	    0.12
114	114	   42.00	    0.00	   85.00	 0.03919	 0.02149	 0.03706	   16.26	   32.89	  -15.48	  0.0345	  0.0368	  0.0385	  0.0394	  0.0459	  0.0550	  0.0563	  0.0534	  0.0488	  0.0424	  0.0325	  0.0225	  0.0152	  0.0093	  0.0057	  0.0047	  0.0048	  0.0045	  0.0049	  0.0084	  0.0189	  0.0354	  0.0498	  0.0550	  0.0532	  0.0549	  0.0665	  0.0862	  0.1072	  0.1227	  0.1317	  0.1362	  0.1384	  0.1411	  0.1479	    0.16
115	115	   85.00	    0.00	   85.00	 0.07030	 0.03740	 0.03653	   22.79	   41.68	   -3.87	  0.0397	  0.0424	  0.0442	  0.0453	  0.0518	  0.0602	  0.0587	  0.0526	  0.0461	  0.0381	  0.0278	  0.0190	  0.0133	  0.0080	  0.0049	  0.0042	  0.0044	  0.0042	  0.0049	  0.0110	  0.0358	  0.0739	  0.1011	  0.1134	  0.1191	  0.1250	  0.1348	  0.1477	  0.1596	  0.1677	  0.1720	  0.1732	  0.1740	  0.1763	  0.1834	    0.20
116	116	  127.00	    0.00	   85.00	 0.12034	 0.06311	 0.03667	   30.19	   50.81	    8.79	  0.0495	  0.0527	  0.0550	  0.0564	  0.0633	  0.0688	  0.0610	  0.0509	  0.0421	  0.0340	  0.0261	  0.0186	  0.0132	  0.0082	  0.0052	  0.0045	  0.0047	  0.0044	  0.0052	  0.0134	  0.0569	  0.1330	  0.1849	  0.2079	  0.2189	  0.2286	  0.2426	  0.2596	  0.2756	  0.2855	  0.2898	  0.2905	  0.2905	  0.2931	  0.3032	    0.32
117	117	  170.00	    0.00	   85.00	 0.19256	 0.09993	 0.03578	   37.83	   60.24	   22.55	  0.0570	  0.0608	  0.0634	  0.0651	  0.0720	  0.0737	  0.0606	  0.0477	  0.0378	  0.0303	  0.0239	  0.0176	  0.0127	  0.0083	  0.0057	  0.0050	  0.0049	  0.0047	  0.0054	  0.0153	  0.0827	  0.2147	  0.3068	  0.3483	  0.3682	  0.3828	  0.4000	  0.4198	  0.4376	  0.4488	  0.4542	  0.4552	  0.4550	  0.4571	  0.4678	    0.49
118	118	  212.00	    0.00	   85.00	 0.26667	 0.13635	 0.03015	   43.71	   68.42	   36.57	  0.0584	  0.0622	  0.0649	  0.0666	  0.0716	  0.0689	  0.0522	  0.0382	  0.0288	  0.0228	  0.0180	  0.0131	  0.0095	  0.0067	  0.0050	  0.0044	  0.0044	  0.0044	  0.0050	  0.0139	  0.0969	  0.2864	  0.4308	  0.5013	  0.5346	  0.5544	  0.5732	  0.5922	  0.6086	  0.6197	  0.6265	  0.6301	  0.6322	  0.6353	  0.6416	    0.65
119	119	  255.00	    0.00	   85.00	 0.35153	 0.17578	 0.02280	   48.98	   77.10	   51.57	  0.0545	  0.0582	  0.0606	  0.0622	  0.0652	  0.0583	  0.0399	  0.0267	  0.0190	  0.0149	  0.0120	  0.0088	  0.0065	  0.0049	  0.0040	  0.0035	  0.0035	  0.0038	  0.0045	  0.0108	  0.0952	  0.3350	  0.5516	  0.6780	  0.7475	  0.7850	  0.8069	  0.8208	  0.8299	  0.8367	  0.8444	  0.8503	  0.8564	  0.8600	  0.8593	    0.86
120	120	    0.00	   36.00	   85.00	 0.01183	 0.01060	 0.04155	    9.48	    5.47	  -29.92	  0.0266	  0.0283	  0.0295	  0.0303	  0.0360	  0.0461	  0.0531	  0.0568	  0.0580	  0.0566	  0.0509	  0.0398	  0.0292	  0.0212	  0.0149	  0.0111	  0.0093	  0.0076	  0.0058	  0.0050	  0.0049	  0.0051	  0.0052	  0.0046	  0.0042	  0.0044	  0.0055	  0.0081	  0.0118	  0.0146	  0.0151	  0.0147	  0.0135	  0.0132	  0.0154	    0.02
121	121	   42.00	   36.00	   85.00	 0.03961	 0.03090	 0.05498	   20.40	   15.62	  -18.32	  0.0399	  0.0425	  0.0443	  0.0455	  0.0536	  0.0662	  0.0717	  0.0734	  0.0735	  0.0714	  0.0648	  0.0543	  0.0444	  0.0340	  0.0250	  0.0215	  0.0214	  0.0193	  0.0175	  0.0206	  0.0281	  0.0364	  0.0416	  0.0422	  0.0411	  0.0428	  0.0500	  0.0622	  0.0754	  0.0844	  0.0876	  0.0879	  0.0862	  0.0862	  0.0931	    0.11
122	122	   85.00	   36.00	   85.00	 0.07749	 0.05571	 0.05583	   28.31	   24.81	   -5.11	  0.0447	  0.0477	  0.0497	  0.0510	  0.0588	  0.0703	  0.0733	  0.0731	  0.0721	  0.0697	  0.0642	  0.0578	  0.0512	  0.0408	  0.0307	  0.0282	  0.0297	  0.0270	  0.0265	  0.0393	  0.0652	  0.0886	  0.0996	  0.1029	  0.1048	  0.1091	  0.1181	  0.1304	  0.1426	  0.1504	  0.1533	  0.1532	  0.1524	  0.1535	  0.1618	    0.18
123	123	  127.00	   36.00	   85.00	 0.13506	 0.08983	 0.05674	   35.95	   35.74	    7.64	  0.0527	  0.0562	  0.0586	  0.0601	  0.0679	  0.0769	  0.0757	  0.0725	  0.0694	  0.0663	  0.0636	  0.0613	  0.0580	  0.0477	  0.0373	  0.0350	  0.0356	  0.0312	  0.0316	  0.0538	  0.1104	  0.1680	  0.1937	  0.2025	  0.2079	  0.2156	  0.2273	  0.2422	  0.2564	  0.2654	  0.2685	  0.2682	  0.2673	  0.2693	  0.2797	    0.30
124	124	  170.00	   36.00	   85.00	 0.21101	 0.13205	 0.05241	   43.07	   46.69	   22.05	  0.0548	  0.0584	  0.0610	  0.0626	  0.0696	  0.0754	  0.0705	  0.0651	  0.0606	  0.0576	  0.0573	  0.0598	  0.0602	  0.0510	  0.0412	  0.0391	  0.0386	  0.0327	  0.0338	  0.0653	  0.1617	  0.2721	  0.3235	  0.3421	  0.3526	  0.3632	  0.3774	  0.3944	  0.4102	  0.4199	  0.4239	  0.4243	  0.4235	  0.4254	  0.4370	    0.46
125	125	  212.00	   36.00	   85.00	 0.30014	 0.18084	 0.04791	   49.60	   56.11	   35.66	  0.0544	  0.0581	  0.0606	  0.0622	  0.0679	  0.0712	  0.0642	  0.0578	  0.0529	  0.0503	  0.0518	  0.0575	  0.0611	  0.0538	  0.0451	  0.0434	  0.0415	  0.0344	  0.0364	  0.0758	  0.2149	  0.3898	  0.4765	  0.5108	  0.5291	  0.5426	  0.5561	  0.5699	  0.5824	  0.5907	  0.5956	  0.5979	  0.5990	  0.6016	  0.6085	    0.62
126	126	  255.00	   36.00	   85.00	 0.42802	 0.24958	 0.05274	   57.04	   66.61	   45.96	  0.0643	  0.0686	  0.0715	  0.0733	  0.0792	  0.0808	  0.0708	  0.0626	  0.0567	  0.0540	  0.0563	  0.0637	  0.0692	  0.0614	  0.0512	  0.0490	  0.0465	  0.0380	  0.0406	  0.0904	  0.2775	  0.5346	  0.6824	  0.7538	  0.7912	  0.8114	  0.8248	  0.8346	  0.8418	  0.8478	  0.8551	  0.8609	  0.8666	  0.8695	  0.8674	    0.86
127	127	    0.00	   72.00	   85.00	 0.01176	 0.01605	 0.04698	   13.26	  -11.07	  -26.49	  0.0259	  0.0277	  0.0289	  0.0296	  0.0350	  0.0454	  0.0544	  0.0605	  0.0640	  0.0659	  0.0646	  0.0591	  0.0521	  0.0442	  0.0350	  0.0263	  0.0188	  0.0117	  0.0065	  0.0041	  0.0034	  0.0031	  0.0028	  0.0027	  0.0027	  0.0028	  0.0030	  0.0033	  0.0038	  0.0041	  0.0038	  0.0034	  0.0033	  0.0038	  0.0045	    0.01
128	128	   42.00	   72.00	   85.00	 0.04612	 0.04868	 0.06939	   26.35	   -1.06	  -14.59	  0.0449	  0.0478	  0.0499	  0.0512	  0.0600	  0.0745	  0.0826	  0.0873	  0.0910	  0.0931	  0.0917	  0.0855	  0.0786	  0.0697	  0.0597	  0.0540	  0.0512	  0.0452	  0.0380	  0.0359	  0.0376	  0.0399	  0.0404	  0.0393	  0.0388	  0.0406	  0.0459	  0.0544	  0.0639	  0.0696	  0.0706	  0.0690	  0.0662	  0.0662	  0.0728	    0.09
129	129	   85.00	   72.00	   85.00	 0.08737	 0.08078	 0.07203	   34.14	    8.43	   -2.26	  0.0483	  0.0516	  0.0538	  0.0552	  0.0642	  0.0786	  0.0853	  0.0890	  0.0924	  0.0949	  0.0947	  0.0919	  0.0886	  0.0810	  0.0715	  0.0687	  0.0704	  0.0660	  0.0626	  0.0712	  0.0855	  0.0951	  0.0973	  0.0969	  0.0983	  0.1025	  0.1102	  0.1205	  0.1309	  0.1373	  0.1385	  0.1373	  0.1347	  0.1359	  0.1454	    0.16
130	130	  127.00	   72.00	   85.00	 0.15169	 0.12630	 0.07480	   42.20	   19.06	   10.50	  0.0558	  0.0596	  0.0622	  0.0637	  0.0731	  0.0856	  0.0885	  0.0896	  0.0908	  0.0926	  0.0963	  0.1038	  0.1097	  0.1032	  0.0919	  0.0893	  0.0906	  0.0833	  0.0813	  0.1040	  0.1486	  0.1842	  0.1957	  0.1982	  0.2022	  0.2093	  0.2201	  0.2341	  0.2475	  0.2558	  0.2577	  0.2562	  0.2535	  0.2549	  0.2667	    0.29
131	131	  170.00	   72.00	   85.00	 0.22554	 0.17079	 0.06957	   48.36	   30.67	   23.27	  0.0580	  0.0619	  0.0645	  0.0662	  0.0742	  0.0833	  0.0825	  0.0811	  0.0802	  0.0809	  0.0872	  0.1020	  0.1160	  0.1119	  0.1007	  0.0984	  0.0983	  0.0886	  0.0886	  0.1259	  0.2115	  0.2896	  0.3190	  0.3282	  0.3356	  0.3450	  0.3578	  0.3734	  0.3878	  0.3968	  0.4000	  0.3995	  0.3979	  0.3999	  0.4114	    0.43
132	132	  212.00	   72.00	   85.00	 0.33097	 0.23667	 0.07192	   55.76	   40.81	   35.03	  0.0640	  0.0682	  0.0712	  0.0730	  0.0807	  0.0880	  0.0848	  0.0817	  0.0795	  0.0799	  0.0884	  0.1106	  0.1338	  0.1315	  0.1186	  0.1161	  0.1151	  0.1022	  0.1040	  0.1599	  0.2982	  0.4344	  0.4914	  0.5122	  0.5247	  0.5358	  0.5481	  0.5611	  0.5731	  0.5809	  0.5852	  0.5870	  0.5878	  0.5901	  0.5975	    0.61
133	133	  255.00	   72.00	   85.00	 0.47633	 0.32125	 0.07837	   63.44	   52.82	   45.72	  0.0711	  0.0758	  0.0791	  0.0811	  0.0894	  0.0961	  0.0915	  0.0873	  0.0847	  0.0851	  0.0953	  0.1261	  0.1599	  0.1550	  0.1307	  0.1252	  0.1279	  0.1125	  0.1160	  0.1980	  0.3993	  0.6125	  0.7237	  0.7767	  0.8044	  0.8195	  0.8307	  0.8396	  0.8461	  0.8518	  0.8585	  0.8639	  0.8689	  0.8713	  0.8697	    0.87
134	134	    0.00	  109.00	   85.00	 0.01412	 0.02632	 0.05433	   18.51	  -26.40	  -21.27	  0.0274	  0.0292	  0.0305	  0.0312	  0.0371	  0.0474	  0.0573	  0.0650	  0.0700	  0.0746	  0.0807	  0.0871	  0.0898	  0.0834	  0.0690	  0.0512	  0.0334	  0.0179	  0.0082	  0.0045	  0.0035	  0.0032	  0.0031	  0.0031	  0.0031	  0.0032	  0.0033	  0.0035	  0.0038	  0.0039	  0.0037	  0.0036	  0.0038	  0.0043	  0.0055	    0.01
135	135	   42.00	  109.00	   85.00	 0.05466	 0.07252	 0.08561	   32.38	  -16.43	  -10.57	  0.0519	  0.0553	  0.0578	  0.0593	  0.0690	  0.0851	  0.0951	  0.1024	  0.1083	  0.1138	  0.1196	  0.1247	  0.1278	  0.1235	  0.1128	  0.1027	  0.0929	  0.0773	  0.0602	  0.0503	  0.0455	  0.0432	  0.0405	  0.0382	  0.0380	  0.0399	  0.0443	  0.0514	  0.0596	  0.0641	  0.0636	  0.0608	  0.0569	  0.0562	  0.0631	    0.08
136	136	   85.00	  109.00	   85.00	 0.10003	 0.11226	 0.08615	   39.96	   -6.26	    2.31	  0.0527	  0.0562	  0.0587	  0.0601	  0.0701	  0.0860	  0.0944	  0.1006	  0.1066	  0.1133	  0.1207	  0.1299	  0.1380	  0.1372	  0.1293	  0.1249	  0.1234	  0.1135	  0.1024	  0.1012	  0.1027	  0.1021	  0.0988	  0.0959	  0.0970	  0.1012	  0.1085	  0.1184	  0.1287	  0.1348	  0.1350	  0.1321	  0.1281	  0.1280	  0.1379	    0.16
137	137	  127.00	  109.00	   85.00	 0.17101	 0.16937	 0.08901	   48.18	    4.28	   15.45	  0.0573	  0.0610	  0.0636	  0.0653	  0.0758	  0.0906	  0.0965	  0.1010	  0.1058	  0.1119	  0.1230	  0.1424	  0.1618	  0.1649	  0.1574	  0.1559	  0.1586	  0.1511	  0.1458	  0.1604	  0.1834	  0.1972	  0.1984	  0.1973	  0.2007	  0.2075	  0.2174	  0.2299	  0.2420	  0.2492	  0.2503	  0.2482	  0.2455	  0.2472	  0.2588	    0.28
138	138	  170.00	  109.00	   85.00	 0.24992	 0.22303	 0.08291	   54.35	   15.58	   28.31	  0.0592	  0.0632	  0.0659	  0.0676	  0.0756	  0.0862	  0.0884	  0.0904	  0.0930	  0.0979	  0.1117	  0.1425	  0.1771	  0.1854	  0.1769	  0.1757	  0.1779	  0.1671	  0.1650	  0.1996	  0.2629	  0.3105	  0.3246	  0.3282	  0.3340	  0.3426	  0.3541	  0.3681	  0.3813	  0.3892	  0.3915	  0.3906	  0.3885	  0.3900	  0.4023	    0.42
139	139	  212.00	  109.00	   85.00	 0.36651	 0.30297	 0.08964	   61.91	   26.38	   38.90	  0.0671	  0.0716	  0.0747	  0.0767	  0.0852	  0.0949	  0.0950	  0.0953	  0.0967	  0.1012	  0.1181	  0.1612	  0.2111	  0.2225	  0.2090	  0.2066	  0.2089	  0.1942	  0.1947	  0.2538	  0.3715	  0.4707	  0.5079	  0.5209	  0.5303	  0.5401	  0.5519	  0.5647	  0.5768	  0.5848	  0.5895	  0.5913	  0.5919	  0.5941	  0.6017	    0.62
140	140	  255.00	  109.00	   85.00	 0.52087	 0.40082	 0.09537	   69.53	   38.56	   50.04	  0.0741	  0.0790	  0.0824	  0.0846	  0.0926	  0.1004	  0.0987	  0.0983	  0.0991	  0.1032	  0.1238	  0.1828	  0.2558	  0.2650	  0.2312	  0.2236	  0.2346	  0.2169	  0.2199	  0.3180	  0.5031	  0.6679	  0.7508	  0.7905	  0.8112	  0.8228	  0.8323	  0.8403	  0.8463	  0.8514	  0.8582	  0.8631	  0.8686	  0.8707	  0.8690	    0.87
141	141	    0.00	  145.00	   85.00	 0.01763	 0.04167	 0.06429	   24.22	  -41.64	  -16.08	  0.0311	  0.0332	  0.0346	  0.0355	  0.0415	  0.0517	  0.0619	  0.0711	  0.0770	  0.0844	  0.1001	  0.1260	  0.1463	  0.1425	  0.1191	  0.0874	  0.0552	  0.0277	  0.0115	  0.0057	  0.0041	  0.0036	  0.0035	  0.0035	  0.0035	  0.0036	  0.0036	  0.0038	  0.0041	  0.0043	  0.0038	  0.0038	  0.0039	  0.0044	  0.0055	    0.01
142	142	   42.00	  145.00	   85.00	 0.06033	 0.09983	 0.09939	   37.82	  -33.45	   -5.99	  0.0571	  0.0609	  0.0636	  0.0652	  0.0756	  0.0918	  0.1027	  0.1116	  0.1189	  0.1276	  0.1438	  0.1719	  0.1990	  0.2036	  0.1893	  0.1687	  0.1443	  0.1111	  0.0781	  0.0579	  0.0477	  0.0419	  0.0373	  0.0340	  0.0336	  0.0354	  0.0394	  0.0461	  0.0542	  0.0584	  0.0569	  0.0531	  0.0487	  0.0473	  0.0543	    0.07
143	143	   85.00	  145.00	   85.00	 0.12699	 0.16629	 0.10689	   47.79	  -20.56	    8.78	  0.0631	  0.0672	  0.0702	  0.0721	  0.0831	  0.0999	  0.1092	  0.1170	  0.1243	  0.1339	  0.1526	  0.1885	  0.2278	  0.2413	  0.2332	  0.2219	  0.2091	  0.1831	  0.1542	  0.1385	  0.1301	  0.1236	  0.1164	  0.1112	  0.1117	  0.1162	  0.1243	  0.1361	  0.1487	  0.1556	  0.1544	  0.1495	  0.1427	  0.1409	  0.1526	    0.18
144	144	  127.00	  145.00	   85.00	 0.19633	 0.22311	 0.10435	   54.35	   -9.10	   20.92	  0.0638	  0.0680	  0.0710	  0.0729	  0.0824	  0.0969	  0.1044	  0.1114	  0.1188	  0.1289	  0.1492	  0.1894	  0.2339	  0.2516	  0.2480	  0.2450	  0.2449	  0.2316	  0.2159	  0.2149	  0.2167	  0.2149	  0.2093	  0.2050	  0.2071	  0.2138	  0.2242	  0.2380	  0.2520	  0.2598	  0.2600	  0.2566	  0.2515	  0.2510	  0.2642	    0.29
145	145	  170.00	  145.00	   85.00	 0.28401	 0.29143	 0.10086	   60.90	    1.18	   33.35	  0.0630	  0.0671	  0.0700	  0.0719	  0.0809	  0.0935	  0.0985	  0.1037	  0.1098	  0.1194	  0.1423	  0.1931	  0.2543	  0.2796	  0.2762	  0.2764	  0.2824	  0.2735	  0.2671	  0.2882	  0.3177	  0.3347	  0.3368	  0.3361	  0.3403	  0.3484	  0.3600	  0.3741	  0.3878	  0.3961	  0.3985	  0.3974	  0.3945	  0.3960	  0.4090	    0.43
146	146	  212.00	  145.00	   85.00	 0.40466	 0.37634	 0.10760	   67.75	   13.35	   42.98	  0.0712	  0.0758	  0.0791	  0.0812	  0.0908	  0.1026	  0.1052	  0.1086	  0.1132	  0.1214	  0.1470	  0.2116	  0.2930	  0.3228	  0.3111	  0.3090	  0.3169	  0.3036	  0.3018	  0.3554	  0.4409	  0.5021	  0.5231	  0.5306	  0.5380	  0.5469	  0.5584	  0.5716	  0.5837	  0.5920	  0.5964	  0.5986	  0.5996	  0.6026	  0.6111	    0.63
147	147	  255.00	  145.00	   85.00	 0.56083	 0.47930	 0.11104	   74.78	   26.08	   54.03	  0.0784	  0.0836	  0.0872	  0.0894	  0.0972	  0.1058	  0.1061	  0.1082	  0.1119	  0.1196	  0.1479	  0.2298	  0.3395	  0.3719	  0.3409	  0.3336	  0.3496	  0.3327	  0.3342	  0.4293	  0.5837	  0.7073	  0.7688	  0.7987	  0.8144	  0.8239	  0.8325	  0.8401	  0.8462	  0.8515	  0.8588	  0.8641	  0.8693	  0.8722	  0.8712	    0.87
148	148	    0.00	  182.00	   85.00	 0.02155	 0.06103	 0.07408	   29.67	  -56.01	  -10.81	  0.0351	  0.0375	  0.0390	  0.0401	  0.0455	  0.0548	  0.0647	  0.0750	  0.0819	  0.0922	  0.1189	  0.1705	  0.2180	  0.2201	  0.1844	  0.1335	  0.0824	  0.0399	  0.0156	  0.0072	  0.0050	  0.0043	  0.0039	  0.0038	  0.0038	  0.0038	  0.0038	  0.0041	  0.0044	  0.0049	  0.0045	  0.0045	  0.0046	  0.0053	  0.0067	    0.01
149	149	   42.00	  182.00	   85.00	 0.07210	 0.14259	 0.11583	   44.61	  -50.58	    0.54	  0.0629	  0.0670	  0.0699	  0.0718	  0.0822	  0.0983	  0.1097	  0.1205	  0.1292	  0.1414	  0.1718	  0.2341	  0.3023	  0.3248	  0.3055	  0.2681	  0.2204	  0.1610	  0.1055	  0.0716	  0.0544	  0.0454	  0.0385	  0.0342	  0.0335	  0.0354	  0.0395	  0.0468	  0.0557	  0.0602	  0.0581	  0.0531	  0.0474	  0.0455	  0.0538	    0.08
150	150	   85.00	  182.00	   85.00	 0.14507	 0.22033	 0.12355	   54.06	  -36.06	   14.59	  0.0694	  0.0740	  0.0772	  0.0793	  0.0903	  0.1067	  0.1164	  0.1258	  0.1345	  0.1474	  0.1794	  0.2495	  0.3327	  0.3692	  0.3613	  0.3374	  0.3049	  0.2554	  0.2022	  0.1667	  0.1459	  0.1328	  0.1212	  0.1134	  0.1128	  0.1173	  0.1260	  0.1398	  0.1549	  0.1629	  0.1605	  0.1531	  0.1434	  0.1398	  0.1526	    0.19
151	151	  127.00	  182.00	   85.00	 0.21321	 0.27829	 0.11745	   59.74	  -24.08	   26.15	  0.0671	  0.0715	  0.0747	  0.0765	  0.0870	  0.1015	  0.1090	  0.1169	  0.1252	  0.1376	  0.1687	  0.2394	  0.3279	  0.3721	  0.3734	  0.3626	  0.3471	  0.3144	  0.2752	  0.2501	  0.2339	  0.2220	  0.2099	  0.2013	  0.2018	  0.2082	  0.2197	  0.2366	  0.2545	  0.2639	  0.2625	  0.2556	  0.2460	  0.2424	  0.2571	    0.29
152	152	  170.00	  182.00	   85.00	 0.31533	 0.35888	 0.11128	   66.43	  -10.84	   39.57	  0.0649	  0.0692	  0.0721	  0.0740	  0.0829	  0.0952	  0.1007	  0.1073	  0.1151	  0.1273	  0.1582	  0.2322	  0.3286	  0.3802	  0.3884	  0.3895	  0.3920	  0.3793	  0.3622	  0.3604	  0.3608	  0.3576	  0.3501	  0.3444	  0.3471	  0.3554	  0.3681	  0.3853	  0.4021	  0.4117	  0.4132	  0.4099	  0.4039	  0.4030	  0.4173	    0.45
153	153	  212.00	  182.00	   85.00	 0.43959	 0.45629	 0.12173	   73.31	   -0.11	   48.30	  0.0738	  0.0786	  0.0821	  0.0843	  0.0934	  0.1055	  0.1099	  0.1157	  0.1231	  0.1352	  0.1698	  0.2587	  0.3774	  0.4351	  0.4342	  0.4345	  0.4456	  0.4355	  0.4288	  0.4615	  0.5011	  0.5227	  0.5282	  0.5302	  0.5355	  0.5440	  0.5557	  0.5697	  0.5830	  0.5917	  0.5962	  0.5976	  0.5975	  0.5997	  0.6095	    0.63
154	154	  255.00	  182.00	   85.00	 0.61186	 0.58089	 0.13219	   80.79	   12.48	   58.26	  0.0855	  0.0912	  0.0951	  0.0976	  0.1062	  0.1161	  0.1183	  0.1230	  0.1294	  0.1412	  0.1795	  0.2870	  0.4380	  0.5051	  0.4877	  0.4832	  0.5023	  0.4885	  0.4879	  0.5676	  0.6761	  0.7520	  0.7899	  0.8091	  0.8198	  0.8274	  0.8352	  0.8428	  0.8490	  0.8547	  0.8617	  0.8676	  0.8731	  0.8764	  0.8755	    0.88
155	155	    0.00	  218.00	   85.00	 0.02528	 0.08368	 0.08470	   34.74	  -70.17	   -6.16	  0.0358	  0.0381	  0.0398	  0.0408	  0.0473	  0.0570	  0.0672	  0.0785	  0.0863	  0.0992	  0.1376	  0.2222	  0.3097	  0.3219	  0.2671	  0.1877	  0.1106	  0.0506	  0.0183	  0.0079	  0.0053	  0.0044	  0.0041	  0.0039	  0.0039	  0.0038	  0.0038	  0.0039	  0.0043	  0.0045	  0.0042	  0.0041	  0.0042	  0.0049	  0.0069	    0.01
156	156	   42.00	  218.00	   85.00	 0.08178	 0.18297	 0.12550	   49.86	  -64.18	    6.78	  0.0641	  0.0683	  0.0712	  0.0732	  0.0832	  0.0985	  0.1099	  0.1214	  0.1308	  0.1455	  0.1866	  0.2826	  0.4004	  0.4486	  0.4244	  0.3658	  0.2911	  0.2057	  0.1289	  0.0823	  0.0592	  0.0477	  0.0395	  0.0345	  0.0336	  0.0355	  0.0399	  0.0479	  0.0578	  0.0628	  0.0601	  0.0545	  0.0481	  0.0460	  0.0546	    0.08
157	157	   85.00	  218.00	   85.00	 0.15183	 0.26066	 0.13361	   58.10	  -49.39	   18.76	  0.0708	  0.0755	  0.0787	  0.0809	  0.0924	  0.1088	  0.1186	  0.1285	  0.1376	  0.1524	  0.1934	  0.2922	  0.4211	  0.4852	  0.4781	  0.4391	  0.3841	  0.3108	  0.2343	  0.1802	  0.1481	  0.1294	  0.1146	  0.1047	  0.1036	  0.1080	  0.1174	  0.1326	  0.1498	  0.1585	  0.1553	  0.1463	  0.1346	  0.1294	  0.1432	    0.18
158	158	  127.00	  218.00	   85.00	 0.23676	 0.34367	 0.13377	   65.26	  -37.13	   31.04	  0.0741	  0.0791	  0.0825	  0.0847	  0.0948	  0.1090	  0.1165	  0.1252	  0.1343	  0.1492	  0.1907	  0.2947	  0.4352	  0.5137	  0.5209	  0.4984	  0.4626	  0.4067	  0.3413	  0.2911	  0.2573	  0.2357	  0.2169	  0.2042	  0.2033	  0.2102	  0.2235	  0.2436	  0.2656	  0.2768	  0.2740	  0.2633	  0.2497	  0.2428	  0.2603	    0.31
159	159	  170.00	  218.00	   85.00	 0.34387	 0.43685	 0.13272	   72.01	  -24.81	   42.99	  0.0749	  0.0799	  0.0833	  0.0855	  0.0947	  0.1076	  0.1136	  0.1212	  0.1302	  0.1452	  0.1874	  0.2953	  0.4448	  0.5338	  0.5526	  0.5459	  0.5306	  0.4972	  0.4528	  0.4185	  0.3925	  0.3737	  0.3557	  0.3435	  0.3439	  0.3525	  0.3677	  0.3897	  0.4123	  0.4245	  0.4238	  0.4155	  0.4028	  0.3969	  0.4148	    0.46
160	160	  212.00	  218.00	   85.00	 0.47601	 0.53882	 0.13536	   78.39	  -11.69	   53.26	  0.0787	  0.0839	  0.0876	  0.0899	  0.0988	  0.1104	  0.1151	  0.1221	  0.1309	  0.1459	  0.1887	  0.3009	  0.4604	  0.5572	  0.5793	  0.5817	  0.5832	  0.5674	  0.5472	  0.5465	  0.5490	  0.5479	  0.5416	  0.5370	  0.5401	  0.5483	  0.5612	  0.5781	  0.5946	  0.6046	  0.6075	  0.6055	  0.6013	  0.6003	  0.6112	    0.64
161	161	  255.00	  218.00	   85.00	 0.65788	 0.67730	 0.14407	   85.88	    1.08	   63.86	  0.0890	  0.0949	  0.0990	  0.1016	  0.1092	  0.1179	  0.1209	  0.1273	  0.1360	  0.1514	  0.1982	  0.3241	  0.5081	  0.6183	  0.6357	  0.6403	  0.6547	  0.6459	  0.6437	  0.6912	  0.7497	  0.7883	  0.8076	  0.8180	  0.8249	  0.8309	  0.8383	  0.8456	  0.8520	  0.8576	  0.8647	  0.8704	  0.8763	  0.8795	  0.8795	    0.88
162	162	    0.00	  255.00	   85.00	 0.02844	 0.10675	 0.08496	   39.03	  -82.68	    1.13	  0.0354	  0.0377	  0.0394	  0.0403	  0.0450	  0.0517	  0.0597	  0.0699	  0.0775	  0.0910	  0.1364	  0.2488	  0.3830	  0.4169	  0.3514	  0.2474	  0.1455	  0.0668	  0.0239	  0.0097	  0.0061	  0.0050	  0.0045	  0.0044	  0.0044	  0.0043	  0.0043	  0.0044	  0.0049	  0.0052	  0.0050	  0.0049	  0.0053	  0.0062	  0.0082	    0.01
163	163	   42.00	  255.00	   85.00	 0.08449	 0.21615	 0.12184	   53.61	  -77.98	   14.32	  0.0587	  0.0625	  0.0652	  0.0669	  0.0752	  0.0872	  0.0964	  0.1067	  0.1155	  0.1306	  0.1791	  0.3052	  0.4779	  0.5626	  0.5372	  0.4568	  0.3553	  0.2456	  0.1482	  0.0876	  0.0579	  0.0438	  0.0344	  0.0287	  0.0278	  0.0298	  0.0345	  0.0429	  0.0535	  0.0588	  0.0561	  0.0496	  0.0426	  0.0396	  0.0495	    0.08
164	164	   85.00	  255.00	   85.00	 0.15534	 0.30673	 0.13278	   62.23	  -65.14	   26.10	  0.0671	  0.0715	  0.0747	  0.0766	  0.0859	  0.0986	  0.1065	  0.1157	  0.1249	  0.1407	  0.1890	  0.3196	  0.5095	  0.6210	  0.6215	  0.5639	  0.4811	  0.3801	  0.2746	  0.1949	  0.1470	  0.1207	  0.1011	  0.0888	  0.0874	  0.0926	  0.1034	  0.1212	  0.1416	  0.1519	  0.1475	  0.1361	  0.1213	  0.1146	  0.1314	    0.18
165	165	  127.00	  255.00	   85.00	 0.24037	 0.39904	 0.14038	   69.40	  -53.43	   36.42	  0.0730	  0.0778	  0.0812	  0.0833	  0.0925	  0.1051	  0.1121	  0.1210	  0.1304	  0.1469	  0.1975	  0.3343	  0.5372	  0.6672	  0.6868	  0.6475	  0.5827	  0.4968	  0.3973	  0.3131	  0.2562	  0.2222	  0.1956	  0.1782	  0.1764	  0.1843	  0.1998	  0.2244	  0.2515	  0.2648	  0.2600	  0.2462	  0.2267	  0.2167	  0.2375	    0.30
166	166	  170.00	  255.00	   85.00	 0.36463	 0.51309	 0.14807	   76.86	  -38.71	   47.31	  0.0810	  0.0864	  0.0901	  0.0925	  0.1011	  0.1123	  0.1179	  0.1265	  0.1366	  0.1543	  0.2070	  0.3481	  0.5584	  0.7021	  0.7400	  0.7198	  0.6762	  0.6137	  0.5354	  0.4646	  0.4122	  0.3792	  0.3520	  0.3337	  0.3321	  0.3410	  0.3582	  0.3845	  0.4125	  0.4268	  0.4238	  0.4112	  0.3922	  0.3822	  0.4021	    0.46
167	167	  212.00	  255.00	   85.00	 0.51698	 0.64025	 0.15032	   83.98	  -24.75	   59.00	  0.0847	  0.0903	  0.0942	  0.0967	  0.1040	  0.1131	  0.1176	  0.1260	  0.1364	  0.1552	  0.2097	  0.3537	  0.5702	  0.7269	  0.7823	  0.7817	  0.7604	  0.7246	  0.6762	  0.6323	  0.5974	  0.5751	  0.5566	  0.5447	  0.5449	  0.5530	  0.5674	  0.5884	  0.6093	  0.6208	  0.6212	  0.6155	  0.6054	  0.6000	  0.6138	    0.65
168	168	  255.00	  255.00	   85.00	 0.72421	 0.80501	 0.17176	   91.90	  -10.62	   67.53	  0.1014	  0.1080	  0.1127	  0.1156	  0.1243	  0.1350	  0.1402	  0.1497	  0.1617	  0.1826	  0.2397	  0.3842	  0.5990	  0.7594	  0.8277	  0.8472	  0.8526	  0.8521	  0.8469	  0.8454	  0.8409	  0.8392	  0.8390	  0.8407	  0.8439	  0.8480	  0.8544	  0.8613	  0.8670	  0.8718	  0.8785	  0.8836	  0.8891	  0.8918	  0.8913	    0.89
169	169	    0.00	    0.00	  127.00	 0.02821	 0.01444	 0.07581	   12.25	   32.31	  -41.53	  0.0572	  0.0610	  0.0636	  0.0653	  0.0785	  0.1006	  0.1109	  0.1119	  0.1064	  0.0947	  0.0728	  0.0441	  0.0234	  0.0131	  0.0080	  0.0059	  0.0052	  0.0050	  0.0048	  0.0052	  0.0069	  0.0115	  0.0184	  0.0197	  0.0158	  0.0160	  0.0265	  0.0525	  0.0905	  0.1255	  0.1484	  0.1605	  0.1657	  0.1695	  0.1788	    0.19
170	170	   42.00	    0.00	  127.00	 0.05247	 0.02721	 0.07079	   18.89	   39.10	  -28.05	  0.0648	  0.0690	  0.0720	  0.0740	  0.0877	  0.1071	  0.1100	  0.1036	  0.0940	  0.0799	  0.0593	  0.0381	  0.0234	  0.0131	  0.0074	  0.0058	  0.0058	  0.0053	  0.0055	  0.0094	  0.0208	  0.0408	  0.0604	  0.0667	  0.0618	  0.0628	  0.0806	  0.1139	  0.1522	  0.1816	  0.1993	  0.2086	  0.2124	  0.2162	  0.2258	    0.24
171	171	   85.00	    0.00	  127.00	 0.08653	 0.04495	 0.06579	   25.24	   46.08	  -14.97	  0.0687	  0.0733	  0.0765	  0.0784	  0.0911	  0.1081	  0.1063	  0.0957	  0.0837	  0.0691	  0.0499	  0.0329	  0.0214	  0.0117	  0.0064	  0.0052	  0.0055	  0.0050	  0.0056	  0.0131	  0.0404	  0.0841	  0.1187	  0.1326	  0.1333	  0.1378	  0.1565	  0.1854	  0.2142	  0.2342	  0.2445	  0.2490	  0.2507	  0.2538	  0.2636	    0.28
172	172	  127.00	    0.00	  127.00	 0.13604	 0.06975	 0.06590	   31.74	   54.48	   -3.80	  0.0780	  0.0831	  0.0868	  0.0890	  0.1032	  0.1189	  0.1112	  0.0952	  0.0799	  0.0634	  0.0441	  0.0285	  0.0184	  0.0100	  0.0055	  0.0048	  0.0050	  0.0047	  0.0055	  0.0150	  0.0612	  0.1406	  0.1997	  0.2275	  0.2398	  0.2505	  0.2670	  0.2879	  0.3074	  0.3199	  0.3253	  0.3264	  0.3260	  0.3289	  0.3397	    0.36
173	173	  170.00	    0.00	  127.00	 0.19929	 0.10141	 0.06064	   38.10	   62.46	    9.49	  0.0851	  0.0907	  0.0947	  0.0971	  0.1103	  0.1208	  0.1055	  0.0852	  0.0682	  0.0527	  0.0376	  0.0245	  0.0160	  0.0089	  0.0053	  0.0044	  0.0045	  0.0043	  0.0050	  0.0154	  0.0809	  0.2084	  0.3062	  0.3539	  0.3753	  0.3907	  0.4105	  0.4343	  0.4556	  0.4693	  0.4762	  0.4779	  0.4788	  0.4818	  0.4919	    0.51
174	174	  212.00	    0.00	  127.00	 0.27167	 0.13746	 0.05245	   43.87	   69.74	   23.40	  0.0864	  0.0922	  0.0961	  0.0986	  0.1096	  0.1137	  0.0930	  0.0711	  0.0545	  0.0415	  0.0300	  0.0198	  0.0131	  0.0078	  0.0051	  0.0043	  0.0043	  0.0042	  0.0049	  0.0154	  0.0982	  0.2797	  0.4264	  0.5026	  0.5384	  0.5595	  0.5804	  0.6021	  0.6207	  0.6334	  0.6414	  0.6457	  0.6489	  0.6524	  0.6581	    0.67
175	175	  255.00	    0.00	  127.00	 0.35630	 0.17744	 0.04436	   49.18	   77.83	   36.91	  0.0869	  0.0926	  0.0967	  0.0992	  0.1083	  0.1062	  0.0806	  0.0573	  0.0416	  0.0312	  0.0224	  0.0144	  0.0093	  0.0061	  0.0044	  0.0038	  0.0037	  0.0039	  0.0046	  0.0132	  0.1033	  0.3359	  0.5486	  0.6766	  0.7472	  0.7853	  0.8084	  0.8232	  0.8331	  0.8402	  0.8482	  0.8543	  0.8607	  0.8643	  0.8636	    0.86
176	176	    0.00	   36.00	  127.00	 0.02122	 0.01571	 0.08827	   13.05	   14.90	  -44.85	  0.0567	  0.0605	  0.0631	  0.0648	  0.0789	  0.1029	  0.1183	  0.1248	  0.1240	  0.1177	  0.1012	  0.0737	  0.0490	  0.0321	  0.0201	  0.0138	  0.0113	  0.0092	  0.0068	  0.0058	  0.0058	  0.0063	  0.0066	  0.0059	  0.0052	  0.0054	  0.0074	  0.0118	  0.0184	  0.0236	  0.0247	  0.0237	  0.0213	  0.0207	  0.0250	    0.04
177	177	   42.00	   36.00	  127.00	 0.05604	 0.04022	 0.10723	   23.74	   22.36	  -32.78	  0.0810	  0.0863	  0.0901	  0.0925	  0.1093	  0.1357	  0.1464	  0.1477	  0.1445	  0.1364	  0.1184	  0.0925	  0.0692	  0.0487	  0.0327	  0.0261	  0.0252	  0.0224	  0.0195	  0.0223	  0.0313	  0.0435	  0.0525	  0.0536	  0.0505	  0.0519	  0.0637	  0.0848	  0.1086	  0.1253	  0.1323	  0.1328	  0.1303	  0.1302	  0.1393	    0.16
178	178	   85.00	   36.00	  127.00	 0.10224	 0.06977	 0.10863	   31.76	   30.81	  -19.40	  0.0872	  0.0929	  0.0969	  0.0994	  0.1174	  0.1432	  0.1499	  0.1476	  0.1429	  0.1342	  0.1172	  0.0958	  0.0769	  0.0560	  0.0384	  0.0332	  0.0345	  0.0312	  0.0298	  0.0435	  0.0736	  0.1051	  0.1242	  0.1292	  0.1280	  0.1321	  0.1477	  0.1721	  0.1970	  0.2134	  0.2203	  0.2217	  0.2200	  0.2212	  0.2312	    0.25
179	179	  127.00	   36.00	  127.00	 0.15264	 0.09970	 0.10044	   37.79	   38.62	   -6.38	  0.0874	  0.0932	  0.0973	  0.0998	  0.1163	  0.1380	  0.1398	  0.1345	  0.1283	  0.1199	  0.1062	  0.0913	  0.0776	  0.0580	  0.0408	  0.0367	  0.0392	  0.0348	  0.0347	  0.0600	  0.1191	  0.1784	  0.2081	  0.2184	  0.2231	  0.2307	  0.2452	  0.2648	  0.2836	  0.2955	  0.3000	  0.3001	  0.2991	  0.3011	  0.3124	    0.33
180	180	  170.00	   36.00	  127.00	 0.22351	 0.13876	 0.09244	   44.06	   48.29	    7.13	  0.0912	  0.0972	  0.1014	  0.1040	  0.1192	  0.1357	  0.1310	  0.1216	  0.1127	  0.1041	  0.0949	  0.0861	  0.0768	  0.0589	  0.0428	  0.0394	  0.0408	  0.0352	  0.0363	  0.0713	  0.1692	  0.2770	  0.3300	  0.3501	  0.3611	  0.3720	  0.3867	  0.4046	  0.4211	  0.4314	  0.4356	  0.4356	  0.4346	  0.4367	  0.4484	    0.47
181	181	  212.00	   36.00	  127.00	 0.31484	 0.18937	 0.08931	   50.61	   57.18	   19.54	  0.0962	  0.1025	  0.1070	  0.1098	  0.1240	  0.1369	  0.1275	  0.1152	  0.1048	  0.0964	  0.0899	  0.0857	  0.0801	  0.0633	  0.0477	  0.0444	  0.0449	  0.0378	  0.0397	  0.0844	  0.2262	  0.3971	  0.4851	  0.5215	  0.5408	  0.5547	  0.5682	  0.5820	  0.5944	  0.6026	  0.6076	  0.6098	  0.6110	  0.6138	  0.6209	    0.63
182	182	  255.00	   36.00	  127.00	 0.43160	 0.25008	 0.09035	   57.08	   67.46	   30.33	  0.1014	  0.1082	  0.1128	  0.1158	  0.1290	  0.1391	  0.1272	  0.1144	  0.1042	  0.0972	  0.0931	  0.0914	  0.0865	  0.0676	  0.0490	  0.0448	  0.0452	  0.0373	  0.0398	  0.0940	  0.2793	  0.5256	  0.6728	  0.7468	  0.7862	  0.8077	  0.8222	  0.8328	  0.8407	  0.8471	  0.8549	  0.8606	  0.8663	  0.8696	  0.8683	    0.87
183	183	    0.00	   72.00	  127.00	 0.02045	 0.02217	 0.09477	   16.58	   -2.06	  -41.03	  0.0525	  0.0560	  0.0584	  0.0599	  0.0731	  0.0968	  0.1164	  0.1278	  0.1319	  0.1317	  0.1227	  0.1035	  0.0821	  0.0627	  0.0443	  0.0305	  0.0212	  0.0132	  0.0072	  0.0047	  0.0038	  0.0036	  0.0033	  0.0030	  0.0030	  0.0030	  0.0033	  0.0039	  0.0051	  0.0059	  0.0055	  0.0049	  0.0046	  0.0049	  0.0062	    0.01
184	184	   42.00	   72.00	  127.00	 0.05850	 0.05666	 0.12846	   28.56	    4.43	  -30.77	  0.0868	  0.0925	  0.0966	  0.0991	  0.1174	  0.1471	  0.1627	  0.1693	  0.1716	  0.1700	  0.1587	  0.1371	  0.1151	  0.0933	  0.0726	  0.0608	  0.0552	  0.0466	  0.0368	  0.0337	  0.0366	  0.0415	  0.0442	  0.0430	  0.0411	  0.0428	  0.0507	  0.0644	  0.0799	  0.0900	  0.0923	  0.0903	  0.0862	  0.0851	  0.0937	    0.11
185	185	   85.00	   72.00	  127.00	 0.11475	 0.10015	 0.13612	   37.87	   13.74	  -16.81	  0.0962	  0.1025	  0.1070	  0.1098	  0.1299	  0.1604	  0.1726	  0.1763	  0.1777	  0.1764	  0.1668	  0.1496	  0.1321	  0.1115	  0.0909	  0.0825	  0.0821	  0.0752	  0.0687	  0.0771	  0.0959	  0.1135	  0.1221	  0.1228	  0.1218	  0.1258	  0.1388	  0.1588	  0.1794	  0.1922	  0.1964	  0.1958	  0.1926	  0.1930	  0.2041	    0.23
186	186	  127.00	   72.00	  127.00	 0.17704	 0.14334	 0.13350	   44.71	   22.51	   -4.31	  0.0992	  0.1057	  0.1103	  0.1132	  0.1331	  0.1615	  0.1693	  0.1701	  0.1700	  0.1687	  0.1623	  0.1523	  0.1419	  0.1229	  0.1024	  0.0970	  0.0998	  0.0923	  0.0894	  0.1152	  0.1634	  0.2023	  0.2174	  0.2210	  0.2244	  0.2316	  0.2448	  0.2625	  0.2800	  0.2905	  0.2938	  0.2926	  0.2903	  0.2918	  0.3040	    0.33
187	187	  170.00	   72.00	  127.00	 0.24672	 0.18659	 0.12252	   50.28	   31.72	    8.38	  0.0992	  0.1057	  0.1103	  0.1132	  0.1314	  0.1543	  0.1562	  0.1531	  0.1500	  0.1476	  0.1457	  0.1472	  0.1476	  0.1314	  0.1111	  0.1067	  0.1093	  0.0995	  0.0987	  0.1399	  0.2271	  0.3036	  0.3340	  0.3440	  0.3521	  0.3616	  0.3743	  0.3897	  0.4042	  0.4131	  0.4158	  0.4150	  0.4132	  0.4149	  0.4272	    0.45
188	188	  212.00	   72.00	  127.00	 0.34994	 0.24992	 0.12313	   57.07	   41.70	   19.90	  0.1082	  0.1153	  0.1203	  0.1234	  0.1401	  0.1594	  0.1569	  0.1508	  0.1456	  0.1427	  0.1447	  0.1553	  0.1642	  0.1486	  0.1255	  0.1206	  0.1226	  0.1099	  0.1114	  0.1724	  0.3126	  0.4460	  0.5038	  0.5258	  0.5388	  0.5498	  0.5620	  0.5753	  0.5874	  0.5952	  0.5997	  0.6013	  0.6020	  0.6043	  0.6117	    0.62
189	189	  255.00	   72.00	  127.00	 0.48318	 0.32345	 0.12771	   63.62	   53.93	   29.91	  0.1150	  0.1225	  0.1279	  0.1312	  0.1490	  0.1678	  0.1627	  0.1549	  0.1486	  0.1448	  0.1482	  0.1664	  0.1836	  0.1635	  0.1296	  0.1216	  0.1266	  0.1115	  0.1145	  0.1995	  0.3999	  0.6085	  0.7192	  0.7730	  0.8013	  0.8170	  0.8289	  0.8383	  0.8455	  0.8517	  0.8590	  0.8647	  0.8703	  0.8732	  0.8714	    0.87
190	190	    0.00	  109.00	  127.00	 0.02293	 0.03336	 0.10595	   21.35	  -17.17	  -36.51	  0.0523	  0.0558	  0.0582	  0.0597	  0.0732	  0.0980	  0.1213	  0.1366	  0.1444	  0.1491	  0.1482	  0.1389	  0.1250	  0.1067	  0.0829	  0.0584	  0.0367	  0.0186	  0.0080	  0.0043	  0.0033	  0.0030	  0.0028	  0.0028	  0.0029	  0.0030	  0.0030	  0.0034	  0.0039	  0.0042	  0.0037	  0.0038	  0.0037	  0.0043	  0.0052	    0.01
191	191	   42.00	  109.00	  127.00	 0.06625	 0.08164	 0.15155	   34.33	  -12.13	  -26.92	  0.0938	  0.1000	  0.1043	  0.1071	  0.1276	  0.1611	  0.1808	  0.1921	  0.1989	  0.2032	  0.2005	  0.1883	  0.1735	  0.1545	  0.1316	  0.1134	  0.0993	  0.0795	  0.0587	  0.0474	  0.0434	  0.0426	  0.0410	  0.0386	  0.0376	  0.0393	  0.0451	  0.0548	  0.0662	  0.0730	  0.0728	  0.0695	  0.0648	  0.0635	  0.0712	    0.09
192	192	   85.00	  109.00	  127.00	 0.13243	 0.13966	 0.16157	   44.18	   -1.44	  -12.37	  0.1045	  0.1114	  0.1162	  0.1192	  0.1412	  0.1757	  0.1924	  0.2012	  0.2079	  0.2133	  0.2125	  0.2043	  0.1948	  0.1799	  0.1608	  0.1502	  0.1456	  0.1320	  0.1170	  0.1154	  0.1207	  0.1251	  0.1251	  0.1227	  0.1226	  0.1270	  0.1375	  0.1531	  0.1694	  0.1790	  0.1810	  0.1782	  0.1738	  0.1733	  0.1847	    0.21
193	193	  127.00	  109.00	  127.00	 0.18970	 0.18146	 0.15140	   49.67	    7.73	   -0.41	  0.1010	  0.1077	  0.1124	  0.1153	  0.1355	  0.1667	  0.1793	  0.1856	  0.1916	  0.1971	  0.1990	  0.1966	  0.1935	  0.1822	  0.1663	  0.1618	  0.1647	  0.1561	  0.1499	  0.1664	  0.1917	  0.2073	  0.2097	  0.2088	  0.2119	  0.2189	  0.2298	  0.2440	  0.2581	  0.2666	  0.2679	  0.2661	  0.2634	  0.2646	  0.2772	    0.30
194	194	  170.00	  109.00	  127.00	 0.27002	 0.23711	 0.14443	   55.79	   17.65	   11.91	  0.1054	  0.1124	  0.1173	  0.1204	  0.1384	  0.1639	  0.1705	  0.1727	  0.1752	  0.1792	  0.1862	  0.2000	  0.2140	  0.2058	  0.1865	  0.1820	  0.1860	  0.1745	  0.1714	  0.2092	  0.2745	  0.3224	  0.3374	  0.3414	  0.3474	  0.3562	  0.3678	  0.3821	  0.3957	  0.4040	  0.4065	  0.4053	  0.4029	  0.4046	  0.4165	    0.44
195	195	  212.00	  109.00	  127.00	 0.38476	 0.31529	 0.15185	   62.96	   27.80	   22.36	  0.1164	  0.1242	  0.1296	  0.1330	  0.1517	  0.1761	  0.1792	  0.1786	  0.1786	  0.1813	  0.1921	  0.2200	  0.2496	  0.2423	  0.2156	  0.2094	  0.2149	  0.2000	  0.1996	  0.2641	  0.3834	  0.4797	  0.5171	  0.5307	  0.5404	  0.5501	  0.5619	  0.5749	  0.5870	  0.5953	  0.5995	  0.6009	  0.6016	  0.6043	  0.6122	    0.63
196	196	  255.00	  109.00	  127.00	 0.53119	 0.40431	 0.15608	   69.77	   40.16	   33.08	  0.1232	  0.1314	  0.1371	  0.1407	  0.1590	  0.1815	  0.1822	  0.1801	  0.1788	  0.1804	  0.1947	  0.2410	  0.2926	  0.2784	  0.2279	  0.2157	  0.2307	  0.2131	  0.2153	  0.3195	  0.5059	  0.6665	  0.7497	  0.7905	  0.8121	  0.8243	  0.8344	  0.8426	  0.8493	  0.8551	  0.8619	  0.8677	  0.8734	  0.8760	  0.8749	    0.87
197	197	    0.00	  145.00	  127.00	 0.02509	 0.04577	 0.11231	   25.49	  -30.69	  -31.33	  0.0525	  0.0560	  0.0584	  0.0598	  0.0725	  0.0959	  0.1199	  0.1378	  0.1477	  0.1562	  0.1659	  0.1748	  0.1755	  0.1592	  0.1271	  0.0887	  0.0521	  0.0236	  0.0088	  0.0044	  0.0035	  0.0032	  0.0032	  0.0033	  0.0035	  0.0036	  0.0036	  0.0038	  0.0042	  0.0045	  0.0044	  0.0039	  0.0041	  0.0047	  0.0059	    0.01
198	198	   42.00	  145.00	  127.00	 0.07720	 0.11714	 0.17523	   40.76	  -29.15	  -21.46	  0.1033	  0.1101	  0.1150	  0.1179	  0.1398	  0.1754	  0.1982	  0.2127	  0.2228	  0.2324	  0.2417	  0.2501	  0.2553	  0.2453	  0.2212	  0.1934	  0.1630	  0.1231	  0.0848	  0.0622	  0.0510	  0.0451	  0.0401	  0.0367	  0.0362	  0.0380	  0.0424	  0.0500	  0.0591	  0.0637	  0.0620	  0.0580	  0.0527	  0.0513	  0.0588	    0.08
199	199	   85.00	  145.00	  127.00	 0.15036	 0.18760	 0.18338	   50.41	  -17.11	   -6.64	  0.1129	  0.1204	  0.1256	  0.1289	  0.1514	  0.1871	  0.2060	  0.2182	  0.2283	  0.2395	  0.2517	  0.2666	  0.2807	  0.2778	  0.2606	  0.2446	  0.2289	  0.1992	  0.1670	  0.1502	  0.1418	  0.1355	  0.1280	  0.1225	  0.1228	  0.1276	  0.1363	  0.1495	  0.1637	  0.1714	  0.1704	  0.1649	  0.1580	  0.1559	  0.1683	    0.20
200	200	  127.00	  145.00	  127.00	 0.21148	 0.23180	 0.17042	   55.26	   -5.61	    4.64	  0.1070	  0.1141	  0.1190	  0.1222	  0.1432	  0.1755	  0.1908	  0.2006	  0.2103	  0.2216	  0.2337	  0.2488	  0.2643	  0.2648	  0.2539	  0.2482	  0.2473	  0.2334	  0.2176	  0.2179	  0.2210	  0.2200	  0.2147	  0.2104	  0.2127	  0.2197	  0.2303	  0.2445	  0.2591	  0.2673	  0.2677	  0.2642	  0.2596	  0.2599	  0.2732	    0.30
201	201	  170.00	  145.00	  127.00	 0.30220	 0.30339	 0.17079	   61.94	    3.66	   16.08	  0.1109	  0.1182	  0.1233	  0.1266	  0.1470	  0.1770	  0.1887	  0.1967	  0.2051	  0.2156	  0.2325	  0.2624	  0.2944	  0.2991	  0.2849	  0.2814	  0.2876	  0.2776	  0.2706	  0.2943	  0.3255	  0.3426	  0.3451	  0.3447	  0.3491	  0.3573	  0.3690	  0.3837	  0.3979	  0.4063	  0.4088	  0.4078	  0.4055	  0.4073	  0.4204	    0.44
202	202	  212.00	  145.00	  127.00	 0.43099	 0.39776	 0.18082	   69.31	   14.58	   26.51	  0.1238	  0.1319	  0.1376	  0.1412	  0.1623	  0.1914	  0.1995	  0.2041	  0.2095	  0.2186	  0.2409	  0.2925	  0.3499	  0.3558	  0.3278	  0.3207	  0.3313	  0.3170	  0.3142	  0.3734	  0.4602	  0.5189	  0.5401	  0.5480	  0.5556	  0.5646	  0.5761	  0.5892	  0.6014	  0.6098	  0.6142	  0.6162	  0.6176	  0.6206	  0.6291	    0.64
203	203	  255.00	  145.00	  127.00	 0.57903	 0.49617	 0.18481	   75.83	   26.00	   36.88	  0.1321	  0.1408	  0.1470	  0.1507	  0.1707	  0.1964	  0.2014	  0.2043	  0.2077	  0.2153	  0.2419	  0.3155	  0.4032	  0.4073	  0.3548	  0.3414	  0.3623	  0.3446	  0.3450	  0.4485	  0.6014	  0.7136	  0.7709	  0.7997	  0.8153	  0.8250	  0.8341	  0.8424	  0.8492	  0.8551	  0.8622	  0.8682	  0.8740	  0.8773	  0.8763	    0.88
204	204	    0.00	  182.00	  127.00	 0.03011	 0.06792	 0.13037	   31.33	  -46.56	  -26.51	  0.0593	  0.0632	  0.0659	  0.0677	  0.0812	  0.1051	  0.1300	  0.1504	  0.1620	  0.1752	  0.2010	  0.2400	  0.2663	  0.2506	  0.2013	  0.1392	  0.0805	  0.0355	  0.0122	  0.0054	  0.0038	  0.0035	  0.0033	  0.0034	  0.0035	  0.0036	  0.0036	  0.0039	  0.0044	  0.0047	  0.0044	  0.0041	  0.0041	  0.0050	  0.0066	    0.01
205	205	   42.00	  182.00	  127.00	 0.08396	 0.14942	 0.19089	   45.56	  -43.71	  -16.65	  0.1075	  0.1146	  0.1196	  0.1226	  0.1450	  0.1808	  0.2049	  0.2221	  0.2341	  0.2479	  0.2712	  0.3088	  0.3446	  0.3457	  0.3157	  0.2725	  0.2213	  0.1590	  0.1023	  0.0691	  0.0528	  0.0442	  0.0377	  0.0336	  0.0331	  0.0347	  0.0388	  0.0459	  0.0547	  0.0593	  0.0569	  0.0521	  0.0466	  0.0446	  0.0527	    0.08
206	206	   85.00	  182.00	  127.00	 0.15915	 0.22769	 0.19351	   54.83	  -31.05	   -1.21	  0.1154	  0.1231	  0.1284	  0.1318	  0.1535	  0.1872	  0.2061	  0.2199	  0.2313	  0.2454	  0.2717	  0.3189	  0.3690	  0.3828	  0.3650	  0.3378	  0.3049	  0.2548	  0.2017	  0.1678	  0.1484	  0.1361	  0.1248	  0.1170	  0.1166	  0.1211	  0.1299	  0.1438	  0.1592	  0.1672	  0.1648	  0.1575	  0.1481	  0.1443	  0.1572	    0.19
207	207	  127.00	  182.00	  127.00	 0.23542	 0.29410	 0.19453	   61.14	  -20.01	    9.45	  0.1188	  0.1266	  0.1321	  0.1355	  0.1576	  0.1907	  0.2068	  0.2186	  0.2298	  0.2445	  0.2715	  0.3209	  0.3758	  0.3957	  0.3861	  0.3715	  0.3549	  0.3211	  0.2818	  0.2587	  0.2447	  0.2340	  0.2222	  0.2138	  0.2144	  0.2210	  0.2326	  0.2495	  0.2677	  0.2773	  0.2760	  0.2689	  0.2598	  0.2566	  0.2718	    0.31
208	208	  170.00	  182.00	  127.00	 0.33599	 0.37432	 0.18903	   67.60	   -8.49	   21.76	  0.1178	  0.1256	  0.1310	  0.1344	  0.1548	  0.1853	  0.1984	  0.2088	  0.2200	  0.2351	  0.2634	  0.3174	  0.3792	  0.4054	  0.4025	  0.3996	  0.4006	  0.3866	  0.3689	  0.3681	  0.3697	  0.3669	  0.3597	  0.3542	  0.3569	  0.3652	  0.3781	  0.3953	  0.4125	  0.4221	  0.4234	  0.4200	  0.4146	  0.4137	  0.4283	    0.46
209	209	  212.00	  182.00	  127.00	 0.46723	 0.47717	 0.20373	   74.65	    2.01	   30.82	  0.1324	  0.1412	  0.1473	  0.1512	  0.1723	  0.2023	  0.2134	  0.2221	  0.2318	  0.2465	  0.2797	  0.3520	  0.4365	  0.4652	  0.4505	  0.4464	  0.4568	  0.4454	  0.4387	  0.4746	  0.5175	  0.5407	  0.5473	  0.5497	  0.5551	  0.5634	  0.5748	  0.5883	  0.6011	  0.6093	  0.6133	  0.6144	  0.6144	  0.6163	  0.6253	    0.64
210	210	  255.00	  182.00	  127.00	 0.62472	 0.58714	 0.20715	   81.13	   13.98	   41.31	  0.1423	  0.1517	  0.1582	  0.1623	  0.1820	  0.2076	  0.2145	  0.2206	  0.2279	  0.2407	  0.2791	  0.3748	  0.4920	  0.5244	  0.4890	  0.4796	  0.4991	  0.4841	  0.4834	  0.5671	  0.6781	  0.7529	  0.7908	  0.8102	  0.8213	  0.8289	  0.8368	  0.8446	  0.8511	  0.8566	  0.8632	  0.8686	  0.8742	  0.8770	  0.8760	    0.88
211	211	    0.00	  218.00	  127.00	 0.03588	 0.09441	 0.15214	   36.82	  -60.74	  -22.76	  0.0662	  0.0706	  0.0737	  0.0756	  0.0905	  0.1159	  0.1427	  0.1663	  0.1800	  0.1978	  0.2405	  0.3167	  0.3783	  0.3650	  0.2924	  0.1991	  0.1125	  0.0483	  0.0160	  0.0065	  0.0044	  0.0037	  0.0034	  0.0033	  0.0033	  0.0033	  0.0033	  0.0036	  0.0041	  0.0047	  0.0041	  0.0041	  0.0041	  0.0050	  0.0070	    0.01
212	212	   42.00	  218.00	  127.00	 0.09858	 0.19780	 0.20996	   51.59	  -57.52	  -10.20	  0.1134	  0.1208	  0.1262	  0.1294	  0.1528	  0.1890	  0.2138	  0.2330	  0.2464	  0.2641	  0.3031	  0.3803	  0.4620	  0.4823	  0.4455	  0.3813	  0.3032	  0.2140	  0.1340	  0.0856	  0.0618	  0.0498	  0.0412	  0.0359	  0.0350	  0.0369	  0.0416	  0.0502	  0.0608	  0.0661	  0.0632	  0.0572	  0.0501	  0.0478	  0.0573	    0.08
213	213	   85.00	  218.00	  127.00	 0.17485	 0.28293	 0.21176	   60.15	  -45.23	    4.20	  0.1205	  0.1285	  0.1341	  0.1375	  0.1603	  0.1947	  0.2142	  0.2299	  0.2428	  0.2603	  0.3008	  0.3849	  0.4832	  0.5233	  0.5055	  0.4621	  0.4047	  0.3285	  0.2491	  0.1932	  0.1601	  0.1407	  0.1249	  0.1144	  0.1131	  0.1177	  0.1276	  0.1436	  0.1619	  0.1712	  0.1680	  0.1585	  0.1463	  0.1407	  0.1554	    0.20
214	214	  127.00	  218.00	  127.00	 0.26582	 0.36981	 0.21973	   67.26	  -33.47	   14.89	  0.1297	  0.1382	  0.1443	  0.1480	  0.1714	  0.2057	  0.2228	  0.2365	  0.2490	  0.2674	  0.3088	  0.3964	  0.5020	  0.5518	  0.5469	  0.5207	  0.4837	  0.4266	  0.3601	  0.3094	  0.2753	  0.2532	  0.2339	  0.2207	  0.2197	  0.2268	  0.2403	  0.2612	  0.2841	  0.2958	  0.2928	  0.2824	  0.2683	  0.2614	  0.2789	    0.32
215	215	  170.00	  218.00	  127.00	 0.37915	 0.46553	 0.21949	   73.90	  -21.20	   26.38	  0.1350	  0.1439	  0.1501	  0.1540	  0.1761	  0.2079	  0.2219	  0.2334	  0.2456	  0.2642	  0.3056	  0.3950	  0.5069	  0.5663	  0.5734	  0.5640	  0.5491	  0.5170	  0.4744	  0.4421	  0.4176	  0.3997	  0.3822	  0.3701	  0.3706	  0.3794	  0.3946	  0.4167	  0.4396	  0.4517	  0.4509	  0.4428	  0.4305	  0.4240	  0.4412	    0.48
216	216	  212.00	  218.00	  127.00	 0.49956	 0.55702	 0.21935	   79.45	   -9.82	   35.97	  0.1394	  0.1486	  0.1551	  0.1592	  0.1797	  0.2086	  0.2200	  0.2303	  0.2422	  0.2604	  0.3034	  0.3998	  0.5215	  0.5861	  0.5946	  0.5927	  0.5926	  0.5767	  0.5570	  0.5572	  0.5604	  0.5595	  0.5538	  0.5497	  0.5526	  0.5604	  0.5727	  0.5887	  0.6046	  0.6139	  0.6164	  0.6145	  0.6105	  0.6093	  0.6195	    0.64
217	217	  255.00	  218.00	  127.00	 0.67513	 0.68944	 0.22728	   86.47	    2.28	   46.56	  0.1533	  0.1635	  0.1707	  0.1750	  0.1937	  0.2181	  0.2262	  0.2348	  0.2454	  0.2627	  0.3092	  0.4211	  0.5691	  0.6452	  0.6464	  0.6462	  0.6590	  0.6491	  0.6465	  0.6946	  0.7537	  0.7925	  0.8117	  0.8221	  0.8291	  0.8348	  0.8420	  0.8492	  0.8555	  0.8609	  0.8678	  0.8725	  0.8777	  0.8806	  0.8803	    0.88
218	218	    0.00	  255.00	  127.00	 0.04018	 0.12012	 0.15116	   41.24	  -73.36	  -14.91	  0.0670	  0.0714	  0.0745	  0.0765	  0.0895	  0.1112	  0.1337	  0.1548	  0.1679	  0.1872	  0.2395	  0.3453	  0.4485	  0.4543	  0.3763	  0.2657	  0.1576	  0.0730	  0.0259	  0.0100	  0.0060	  0.0048	  0.0042	  0.0040	  0.0039	  0.0038	  0.0039	  0.0043	  0.0052	  0.0059	  0.0055	  0.0051	  0.0052	  0.0065	  0.0087	    0.01
219	219	   42.00	  255.00	  127.00	 0.09879	 0.22876	 0.19965	   54.94	  -71.83	   -2.30	  0.1025	  0.1093	  0.1141	  0.1170	  0.1368	  0.1681	  0.1900	  0.2081	  0.2210	  0.2406	  0.2914	  0.4047	  0.5409	  0.5926	  0.5536	  0.4685	  0.3642	  0.2519	  0.1520	  0.0896	  0.0588	  0.0443	  0.0346	  0.0289	  0.0280	  0.0301	  0.0349	  0.0437	  0.0549	  0.0604	  0.0574	  0.0508	  0.0433	  0.0407	  0.0509	    0.08
220	220	   85.00	  255.00	  127.00	 0.17516	 0.32679	 0.21488	   63.90	  -61.23	   10.05	  0.1169	  0.1247	  0.1301	  0.1335	  0.1546	  0.1867	  0.2056	  0.2212	  0.2341	  0.2539	  0.3060	  0.4265	  0.5825	  0.6608	  0.6475	  0.5852	  0.4998	  0.3956	  0.2866	  0.2039	  0.1542	  0.1267	  0.1063	  0.0934	  0.0917	  0.0971	  0.1083	  0.1267	  0.1482	  0.1590	  0.1542	  0.1424	  0.1271	  0.1200	  0.1372	    0.19
221	221	  127.00	  255.00	  127.00	 0.27145	 0.42801	 0.23023	   71.42	  -49.11	   20.04	  0.1299	  0.1385	  0.1445	  0.1482	  0.1707	  0.2034	  0.2204	  0.2352	  0.2488	  0.2703	  0.3260	  0.4529	  0.6176	  0.7097	  0.7135	  0.6705	  0.6055	  0.5197	  0.4196	  0.3344	  0.2764	  0.2417	  0.2141	  0.1960	  0.1939	  0.2018	  0.2178	  0.2433	  0.2717	  0.2859	  0.2812	  0.2668	  0.2467	  0.2360	  0.2569	    0.31
222	222	  170.00	  255.00	  127.00	 0.39120	 0.53548	 0.23734	   78.19	  -35.88	   30.40	  0.1419	  0.1513	  0.1578	  0.1619	  0.1830	  0.2129	  0.2270	  0.2404	  0.2544	  0.2763	  0.3325	  0.4615	  0.6333	  0.7395	  0.7601	  0.7351	  0.6903	  0.6270	  0.5482	  0.4776	  0.4258	  0.3934	  0.3665	  0.3485	  0.3467	  0.3555	  0.3726	  0.3989	  0.4270	  0.4413	  0.4381	  0.4253	  0.4065	  0.3962	  0.4156	    0.47
223	223	  212.00	  255.00	  127.00	 0.54299	 0.66036	 0.24363	   85.01	  -22.51	   40.99	  0.1531	  0.1633	  0.1704	  0.1748	  0.1946	  0.2215	  0.2333	  0.2454	  0.2591	  0.2815	  0.3381	  0.4682	  0.6453	  0.7632	  0.7994	  0.7925	  0.7693	  0.7333	  0.6854	  0.6426	  0.6091	  0.5881	  0.5707	  0.5598	  0.5600	  0.5673	  0.5809	  0.6004	  0.6202	  0.6310	  0.6313	  0.6252	  0.6152	  0.6104	  0.6226	    0.66
224	224	  255.00	  255.00	  127.00	 0.74138	 0.81797	 0.26540	   92.49	   -9.55	   50.01	  0.1739	  0.1854	  0.1935	  0.1985	  0.2185	  0.2461	  0.2573	  0.2698	  0.2849	  0.3088	  0.3664	  0.4949	  0.6707	  0.7938	  0.8425	  0.8547	  0.8573	  0.8556	  0.8498	  0.8479	  0.8432	  0.8410	  0.8404	  0.8418	  0.8446	  0.8483	  0.8544	  0.8609	  0.8667	  0.8717	  0.8778	  0.8826	  0.8874	  0.8900	  0.8900	    0.89
225	225	    0.00	    0.00	  170.00	 0.04288	 0.01978	 0.13410	   15.37	   41.93	  -55.05	  0.1039	  0.1108	  0.1155	  0.1186	  0.1428	  0.1833	  0.2015	  0.2008	  0.1877	  0.1635	  0.1222	  0.0695	  0.0339	  0.0173	  0.0096	  0.0067	  0.0059	  0.0056	  0.0054	  0.0058	  0.0078	  0.0142	  0.0233	  0.0250	  0.0195	  0.0195	  0.0338	  0.0703	  0.1252	  0.1766	  0.2105	  0.2288	  0.2359	  0.2403	  0.2523	    0.28
226	226	   42.00	    0.00	  170.00	 0.06650	 0.03256	 0.11807	   21.05	   45.38	  -40.74	  0.1078	  0.1150	  0.1199	  0.1230	  0.1468	  0.1813	  0.1868	  0.1750	  0.1567	  0.1314	  0.0954	  0.0582	  0.0331	  0.0173	  0.0091	  0.0068	  0.0066	  0.0060	  0.0062	  0.0099	  0.0215	  0.0438	  0.0677	  0.0748	  0.0671	  0.0675	  0.0909	  0.1382	  0.1951	  0.2411	  0.2692	  0.2836	  0.2903	  0.2954	  0.3075	    0.33
227	227	   85.00	    0.00	  170.00	 0.10372	 0.05247	 0.11104	   27.42	   50.60	  -27.61	  0.1106	  0.1179	  0.1231	  0.1262	  0.1495	  0.1808	  0.1799	  0.1629	  0.1428	  0.1177	  0.0846	  0.0537	  0.0330	  0.0173	  0.0087	  0.0068	  0.0071	  0.0064	  0.0069	  0.0150	  0.0434	  0.0909	  0.1323	  0.1476	  0.1428	  0.1456	  0.1732	  0.2206	  0.2709	  0.3076	  0.3284	  0.3381	  0.3418	  0.3464	  0.3583	    0.38
228	228	  127.00	    0.00	  170.00	 0.15473	 0.07789	 0.10403	   33.54	   58.18	  -14.87	  0.1161	  0.1239	  0.1292	  0.1326	  0.1555	  0.1835	  0.1754	  0.1522	  0.1285	  0.1022	  0.0705	  0.0439	  0.0272	  0.0138	  0.0068	  0.0055	  0.0058	  0.0052	  0.0060	  0.0172	  0.0662	  0.1504	  0.2187	  0.2490	  0.2542	  0.2622	  0.2898	  0.3309	  0.3708	  0.3977	  0.4119	  0.4182	  0.4205	  0.4240	  0.4357	    0.45
229	229	  170.00	    0.00	  170.00	 0.21483	 0.10805	 0.10364	   39.25	   64.96	   -4.90	  0.1245	  0.1328	  0.1384	  0.1420	  0.1661	  0.1929	  0.1792	  0.1508	  0.1243	  0.0965	  0.0647	  0.0399	  0.0248	  0.0124	  0.0061	  0.0050	  0.0053	  0.0049	  0.0057	  0.0193	  0.0899	  0.2165	  0.3164	  0.3665	  0.3881	  0.4036	  0.4254	  0.4523	  0.4767	  0.4926	  0.5006	  0.5038	  0.5056	  0.5086	  0.5185	    0.54
230	230	  212.00	    0.00	  170.00	 0.27681	 0.13844	 0.08860	   44.00	   71.19	    8.41	  0.1235	  0.1317	  0.1374	  0.1410	  0.1621	  0.1801	  0.1577	  0.1261	  0.0994	  0.0751	  0.0501	  0.0308	  0.0188	  0.0097	  0.0053	  0.0044	  0.0044	  0.0043	  0.0050	  0.0176	  0.1019	  0.2749	  0.4200	  0.4982	  0.5344	  0.5558	  0.5783	  0.6026	  0.6234	  0.6376	  0.6465	  0.6512	  0.6544	  0.6582	  0.6646	    0.68
231	231	  255.00	    0.00	  170.00	 0.35735	 0.17658	 0.07514	   49.08	   78.64	   22.23	  0.1220	  0.1300	  0.1356	  0.1391	  0.1578	  0.1677	  0.1382	  0.1039	  0.0776	  0.0568	  0.0373	  0.0224	  0.0135	  0.0074	  0.0047	  0.0039	  0.0038	  0.0039	  0.0047	  0.0154	  0.1075	  0.3289	  0.5359	  0.6649	  0.7366	  0.7757	  0.7996	  0.8154	  0.8261	  0.8340	  0.8421	  0.8490	  0.8557	  0.8600	  0.8597	    0.86
232	232	    0.00	   36.00	  170.00	 0.03447	 0.02256	 0.15729	   16.78	   23.42	  -58.58	  0.1038	  0.1107	  0.1155	  0.1186	  0.1443	  0.1890	  0.2173	  0.2265	  0.2213	  0.2058	  0.1722	  0.1198	  0.0755	  0.0465	  0.0274	  0.0179	  0.0143	  0.0113	  0.0082	  0.0067	  0.0066	  0.0074	  0.0077	  0.0069	  0.0059	  0.0062	  0.0086	  0.0143	  0.0233	  0.0304	  0.0317	  0.0300	  0.0266	  0.0256	  0.0306	    0.05
233	233	   42.00	   36.00	  170.00	 0.07204	 0.04710	 0.18103	   25.90	   30.01	  -48.39	  0.1382	  0.1474	  0.1538	  0.1577	  0.1887	  0.2369	  0.2560	  0.2559	  0.2457	  0.2262	  0.1892	  0.1380	  0.0947	  0.0617	  0.0382	  0.0285	  0.0265	  0.0234	  0.0196	  0.0215	  0.0304	  0.0446	  0.0569	  0.0582	  0.0527	  0.0538	  0.0696	  0.1002	  0.1365	  0.1632	  0.1750	  0.1770	  0.1738	  0.1727	  0.1850	    0.21
234	234	   85.00	   36.00	  170.00	 0.12786	 0.08313	 0.18189	   34.62	   36.75	  -33.52	  0.1486	  0.1585	  0.1653	  0.1697	  0.2010	  0.2474	  0.2591	  0.2530	  0.2405	  0.2211	  0.1870	  0.1442	  0.1077	  0.0733	  0.0469	  0.0381	  0.0389	  0.0351	  0.0325	  0.0456	  0.0773	  0.1161	  0.1442	  0.1511	  0.1450	  0.1477	  0.1721	  0.2139	  0.2581	  0.2891	  0.3038	  0.3080	  0.3068	  0.3076	  0.3205	    0.35
235	235	  127.00	   36.00	  170.00	 0.18641	 0.11798	 0.17388	   40.90	   43.88	  -20.92	  0.1499	  0.1598	  0.1667	  0.1711	  0.2019	  0.2447	  0.2502	  0.2395	  0.2256	  0.2065	  0.1748	  0.1389	  0.1088	  0.0750	  0.0484	  0.0417	  0.0448	  0.0400	  0.0393	  0.0671	  0.1312	  0.1998	  0.2410	  0.2546	  0.2549	  0.2613	  0.2846	  0.3199	  0.3546	  0.3775	  0.3875	  0.3905	  0.3893	  0.3911	  0.4036	    0.43
236	236	  170.00	   36.00	  170.00	 0.24736	 0.15062	 0.15530	   45.72	   51.67	   -8.20	  0.1443	  0.1538	  0.1605	  0.1646	  0.1926	  0.2281	  0.2267	  0.2122	  0.1969	  0.1785	  0.1513	  0.1235	  0.1003	  0.0695	  0.0443	  0.0391	  0.0432	  0.0377	  0.0386	  0.0791	  0.1811	  0.2897	  0.3483	  0.3716	  0.3827	  0.3937	  0.4110	  0.4329	  0.4535	  0.4663	  0.4718	  0.4728	  0.4721	  0.4740	  0.4847	    0.50
237	237	  212.00	   36.00	  170.00	 0.32881	 0.19494	 0.14850	   51.26	   59.40	    3.05	  0.1521	  0.1621	  0.1692	  0.1736	  0.1998	  0.2293	  0.2201	  0.2003	  0.1818	  0.1635	  0.1406	  0.1191	  0.1000	  0.0712	  0.0470	  0.0424	  0.0455	  0.0392	  0.0408	  0.0895	  0.2298	  0.3951	  0.4875	  0.5276	  0.5473	  0.5610	  0.5763	  0.5934	  0.6084	  0.6184	  0.6240	  0.6266	  0.6282	  0.6312	  0.6375	    0.65
238	238	  255.00	   36.00	  170.00	 0.43776	 0.24979	 0.13982	   57.06	   69.40	   15.29	  0.1530	  0.1630	  0.1701	  0.1745	  0.1999	  0.2250	  0.2095	  0.1863	  0.1663	  0.1486	  0.1298	  0.1133	  0.0975	  0.0697	  0.0452	  0.0401	  0.0425	  0.0354	  0.0378	  0.0944	  0.2778	  0.5167	  0.6658	  0.7427	  0.7836	  0.8060	  0.8210	  0.8319	  0.8402	  0.8468	  0.8539	  0.8597	  0.8657	  0.8688	  0.8672	    0.86
239	239	    0.00	   72.00	  170.00	 0.03411	 0.03084	 0.17084	   20.38	    7.34	  -55.60	  0.0948	  0.1011	  0.1055	  0.1082	  0.1341	  0.1805	  0.2183	  0.2378	  0.2406	  0.2342	  0.2116	  0.1682	  0.1242	  0.0879	  0.0567	  0.0363	  0.0245	  0.0148	  0.0079	  0.0052	  0.0044	  0.0041	  0.0038	  0.0033	  0.0032	  0.0033	  0.0036	  0.0046	  0.0063	  0.0075	  0.0068	  0.0060	  0.0055	  0.0058	  0.0074	    0.01
240	240	   42.00	   72.00	  170.00	 0.08236	 0.07278	 0.22556	   32.43	   11.45	  -46.29	  0.1563	  0.1666	  0.1738	  0.1784	  0.2136	  0.2702	  0.2986	  0.3067	  0.3039	  0.2925	  0.2638	  0.2154	  0.1692	  0.1285	  0.0933	  0.0737	  0.0653	  0.0541	  0.0412	  0.0367	  0.0404	  0.0482	  0.0534	  0.0523	  0.0488	  0.0503	  0.0616	  0.0827	  0.1073	  0.1242	  0.1285	  0.1260	  0.1203	  0.1183	  0.1293	    0.16
241	241	   85.00	   72.00	  170.00	 0.14757	 0.12165	 0.23256	   41.47	   19.70	  -32.03	  0.1702	  0.1815	  0.1893	  0.1943	  0.2307	  0.2867	  0.3080	  0.3109	  0.3072	  0.2966	  0.2700	  0.2286	  0.1890	  0.1486	  0.1125	  0.0963	  0.0938	  0.0849	  0.0749	  0.0820	  0.1042	  0.1301	  0.1468	  0.1486	  0.1434	  0.1463	  0.1668	  0.2013	  0.2379	  0.2625	  0.2717	  0.2717	  0.2678	  0.2674	  0.2807	    0.31
242	242	  127.00	   72.00	  170.00	 0.20931	 0.16328	 0.22002	   47.40	   27.22	  -19.41	  0.1673	  0.1784	  0.1861	  0.1910	  0.2257	  0.2774	  0.2922	  0.2908	  0.2860	  0.2763	  0.2533	  0.2200	  0.1890	  0.1519	  0.1174	  0.1064	  0.1092	  0.1007	  0.0956	  0.1218	  0.1732	  0.2199	  0.2444	  0.2499	  0.2488	  0.2546	  0.2752	  0.3062	  0.3372	  0.3573	  0.3648	  0.3652	  0.3621	  0.3629	  0.3766	    0.40
243	243	  170.00	   72.00	  170.00	 0.27929	 0.20592	 0.19831	   52.50	   35.57	   -6.24	  0.1590	  0.1694	  0.1768	  0.1814	  0.2129	  0.2570	  0.2644	  0.2589	  0.2524	  0.2429	  0.2247	  0.2039	  0.1849	  0.1510	  0.1173	  0.1098	  0.1162	  0.1064	  0.1051	  0.1539	  0.2477	  0.3271	  0.3625	  0.3748	  0.3826	  0.3923	  0.4067	  0.4252	  0.4427	  0.4534	  0.4570	  0.4562	  0.4542	  0.4552	  0.4669	    0.49
244	244	  212.00	   72.00	  170.00	 0.37867	 0.26640	 0.20193	   58.64	   44.43	    3.59	  0.1724	  0.1838	  0.1917	  0.1968	  0.2290	  0.2707	  0.2715	  0.2607	  0.2503	  0.2396	  0.2253	  0.2125	  0.2005	  0.1666	  0.1302	  0.1223	  0.1285	  0.1160	  0.1170	  0.1853	  0.3300	  0.4629	  0.5245	  0.5492	  0.5634	  0.5747	  0.5870	  0.6004	  0.6126	  0.6207	  0.6253	  0.6269	  0.6280	  0.6305	  0.6375	    0.65
245	245	  255.00	   72.00	  170.00	 0.49154	 0.32299	 0.19752	   63.59	   56.36	   13.05	  0.1781	  0.1899	  0.1982	  0.2034	  0.2356	  0.2741	  0.2688	  0.2537	  0.2398	  0.2275	  0.2154	  0.2102	  0.2043	  0.1673	  0.1238	  0.1137	  0.1207	  0.1062	  0.1088	  0.1964	  0.3971	  0.6020	  0.7131	  0.7677	  0.7966	  0.8128	  0.8249	  0.8346	  0.8424	  0.8487	  0.8557	  0.8612	  0.8668	  0.8697	  0.8684	    0.87
246	246	    0.00	  109.00	  170.00	 0.03708	 0.04503	 0.18525	   25.27	   -9.12	  -50.40	  0.0921	  0.0981	  0.1024	  0.1050	  0.1312	  0.1786	  0.2217	  0.2479	  0.2570	  0.2587	  0.2486	  0.2200	  0.1847	  0.1463	  0.1044	  0.0688	  0.0422	  0.0213	  0.0088	  0.0048	  0.0038	  0.0034	  0.0032	  0.0030	  0.0030	  0.0031	  0.0033	  0.0038	  0.0049	  0.0057	  0.0050	  0.0045	  0.0048	  0.0054	  0.0065	    0.01
247	247	   42.00	  109.00	  170.00	 0.08830	 0.09803	 0.25148	   37.49	   -5.16	  -42.37	  0.1616	  0.1723	  0.1797	  0.1845	  0.2211	  0.2817	  0.3159	  0.3309	  0.3355	  0.3335	  0.3152	  0.2775	  0.2375	  0.1974	  0.1568	  0.1286	  0.1101	  0.0866	  0.0618	  0.0488	  0.0459	  0.0473	  0.0473	  0.0446	  0.0424	  0.0441	  0.0523	  0.0671	  0.0846	  0.0957	  0.0963	  0.0918	  0.0856	  0.0834	  0.0937	    0.12
248	248	   85.00	  109.00	  170.00	 0.16623	 0.16560	 0.26324	   47.70	    3.70	  -26.83	  0.1792	  0.1910	  0.1993	  0.2045	  0.2424	  0.3026	  0.3295	  0.3395	  0.3435	  0.3429	  0.3291	  0.2997	  0.2687	  0.2326	  0.1945	  0.1727	  0.1637	  0.1456	  0.1247	  0.1209	  0.1304	  0.1431	  0.1495	  0.1475	  0.1440	  0.1476	  0.1642	  0.1914	  0.2203	  0.2386	  0.2428	  0.2400	  0.2336	  0.2318	  0.2458	    0.28
249	249	  127.00	  109.00	  170.00	 0.23360	 0.21429	 0.25697	   53.42	   12.49	  -15.88	  0.1790	  0.1908	  0.1991	  0.2043	  0.2422	  0.3004	  0.3224	  0.3288	  0.3323	  0.3323	  0.3192	  0.2926	  0.2660	  0.2337	  0.2000	  0.1865	  0.1872	  0.1747	  0.1633	  0.1797	  0.2112	  0.2368	  0.2477	  0.2485	  0.2477	  0.2537	  0.2713	  0.2973	  0.3238	  0.3404	  0.3453	  0.3440	  0.3398	  0.3403	  0.3543	    0.38
250	250	  170.00	  109.00	  170.00	 0.31762	 0.27428	 0.24323	   59.37	   20.45	   -3.16	  0.1766	  0.1883	  0.1964	  0.2016	  0.2370	  0.2889	  0.3041	  0.3063	  0.3080	  0.3077	  0.2998	  0.2882	  0.2774	  0.2487	  0.2138	  0.2053	  0.2128	  0.1998	  0.1950	  0.2403	  0.3119	  0.3609	  0.3776	  0.3826	  0.3890	  0.3982	  0.4107	  0.4260	  0.4410	  0.4500	  0.4523	  0.4507	  0.4481	  0.4492	  0.4612	    0.48
251	251	  212.00	  109.00	  170.00	 0.42109	 0.34065	 0.24784	   65.01	   30.15	    5.74	  0.1894	  0.2018	  0.2106	  0.2160	  0.2523	  0.3025	  0.3118	  0.3092	  0.3067	  0.3045	  0.3004	  0.3020	  0.3034	  0.2734	  0.2312	  0.2210	  0.2300	  0.2147	  0.2134	  0.2842	  0.4072	  0.5035	  0.5432	  0.5585	  0.5688	  0.5788	  0.5907	  0.6042	  0.6169	  0.6251	  0.6294	  0.6308	  0.6317	  0.6337	  0.6416	    0.66
252	252	  255.00	  109.00	  170.00	 0.54425	 0.40780	 0.24252	   70.02	   42.44	   15.34	  0.1928	  0.2055	  0.2144	  0.2199	  0.2548	  0.3010	  0.3055	  0.2995	  0.2940	  0.2899	  0.2907	  0.3087	  0.3265	  0.2885	  0.2266	  0.2114	  0.2269	  0.2085	  0.2101	  0.3169	  0.5056	  0.6648	  0.7473	  0.7880	  0.8097	  0.8221	  0.8324	  0.8411	  0.8482	  0.8541	  0.8609	  0.8664	  0.8719	  0.8748	  0.8735	    0.87
253	253	    0.00	  145.00	  170.00	 0.04073	 0.06153	 0.20142	   29.80	  -23.27	  -46.03	  0.0933	  0.0994	  0.1037	  0.1064	  0.1322	  0.1801	  0.2280	  0.2601	  0.2743	  0.2831	  0.2846	  0.2746	  0.2528	  0.2151	  0.1629	  0.1088	  0.0622	  0.0272	  0.0094	  0.0044	  0.0033	  0.0030	  0.0030	  0.0031	  0.0032	  0.0033	  0.0035	  0.0038	  0.0044	  0.0050	  0.0045	  0.0039	  0.0043	  0.0055	  0.0066	    0.01
254	254	   42.00	  145.00	  170.00	 0.09474	 0.12765	 0.27026	   42.41	  -21.03	  -37.15	  0.1638	  0.1747	  0.1822	  0.1869	  0.2242	  0.2860	  0.3240	  0.3444	  0.3547	  0.3608	  0.3562	  0.3370	  0.3127	  0.2795	  0.2370	  0.1989	  0.1646	  0.1227	  0.0824	  0.0596	  0.0501	  0.0464	  0.0428	  0.0393	  0.0380	  0.0398	  0.0457	  0.0563	  0.0692	  0.0765	  0.0754	  0.0705	  0.0644	  0.0627	  0.0720	    0.10
255	255	   85.00	  145.00	  170.00	 0.17384	 0.20157	 0.27625	   52.01	  -10.71	  -21.60	  0.1782	  0.1899	  0.1982	  0.2034	  0.2411	  0.3006	  0.3304	  0.3452	  0.3547	  0.3620	  0.3616	  0.3519	  0.3388	  0.3130	  0.2772	  0.2508	  0.2318	  0.1999	  0.1647	  0.1481	  0.1443	  0.1445	  0.1416	  0.1365	  0.1346	  0.1388	  0.1514	  0.1719	  0.1942	  0.2070	  0.2076	  0.2019	  0.1937	  0.1908	  0.2045	    0.24
256	256	  127.00	  145.00	  170.00	 0.24315	 0.25635	 0.27160	   57.68	   -1.74	  -11.04	  0.1777	  0.1894	  0.1977	  0.2028	  0.2398	  0.2982	  0.3241	  0.3363	  0.3465	  0.3555	  0.3561	  0.3456	  0.3340	  0.3134	  0.2857	  0.2704	  0.2653	  0.2458	  0.2240	  0.2234	  0.2314	  0.2369	  0.2359	  0.2320	  0.2318	  0.2383	  0.2527	  0.2740	  0.2960	  0.3092	  0.3113	  0.3076	  0.3018	  0.3010	  0.3149	    0.35
257	257	  170.00	  145.00	  170.00	 0.33606	 0.32559	 0.26972	   63.81	    7.90	   -0.17	  0.1824	  0.1945	  0.2029	  0.2082	  0.2449	  0.3007	  0.3218	  0.3307	  0.3396	  0.3483	  0.3505	  0.3482	  0.3464	  0.3283	  0.3004	  0.2922	  0.2989	  0.2862	  0.2773	  0.3063	  0.3448	  0.3656	  0.3697	  0.3696	  0.3742	  0.3828	  0.3950	  0.4104	  0.4258	  0.4349	  0.4370	  0.4350	  0.4317	  0.4327	  0.4461	    0.47
258	258	  212.00	  145.00	  170.00	 0.45730	 0.41393	 0.28289	   70.45	   17.29	    9.08	  0.1990	  0.2122	  0.2214	  0.2271	  0.2658	  0.3215	  0.3378	  0.3427	  0.3477	  0.3540	  0.3622	  0.3810	  0.4011	  0.3812	  0.3385	  0.3268	  0.3386	  0.3227	  0.3183	  0.3819	  0.4718	  0.5303	  0.5519	  0.5601	  0.5677	  0.5768	  0.5886	  0.6023	  0.6155	  0.6241	  0.6282	  0.6295	  0.6301	  0.6323	  0.6407	    0.66
259	259	  255.00	  145.00	  170.00	 0.59256	 0.49872	 0.28499	   75.99	   28.58	   18.28	  0.2107	  0.2246	  0.2344	  0.2405	  0.2779	  0.3295	  0.3407	  0.3417	  0.3426	  0.3458	  0.3577	  0.3990	  0.4447	  0.4184	  0.3515	  0.3342	  0.3557	  0.3370	  0.3368	  0.4437	  0.5991	  0.7103	  0.7668	  0.7954	  0.8109	  0.8206	  0.8297	  0.8381	  0.8450	  0.8507	  0.8575	  0.8625	  0.8680	  0.8713	  0.8709	    0.87
260	260	    0.00	  182.00	  170.00	 0.04609	 0.08406	 0.22320	   34.82	  -37.57	  -41.73	  0.0990	  0.1055	  0.1101	  0.1129	  0.1398	  0.1890	  0.2400	  0.2771	  0.2950	  0.3104	  0.3286	  0.3464	  0.3466	  0.3088	  0.2402	  0.1609	  0.0893	  0.0371	  0.0116	  0.0048	  0.0034	  0.0031	  0.0030	  0.0033	  0.0033	  0.0035	  0.0036	  0.0039	  0.0048	  0.0053	  0.0049	  0.0045	  0.0047	  0.0059	  0.0077	    0.01
261	261	   42.00	  182.00	  170.00	 0.10720	 0.17038	 0.30294	   48.31	  -36.77	  -32.33	  0.1758	  0.1874	  0.1955	  0.2007	  0.2402	  0.3054	  0.3482	  0.3738	  0.3889	  0.4027	  0.4136	  0.4197	  0.4198	  0.3971	  0.3518	  0.2988	  0.2406	  0.1716	  0.1093	  0.0731	  0.0560	  0.0474	  0.0408	  0.0364	  0.0356	  0.0374	  0.0421	  0.0505	  0.0611	  0.0668	  0.0643	  0.0586	  0.0523	  0.0506	  0.0597	    0.09
262	262	   85.00	  182.00	  170.00	 0.18038	 0.24246	 0.28880	   56.33	  -25.83	  -16.23	  0.1775	  0.1892	  0.1973	  0.2025	  0.2398	  0.2991	  0.3310	  0.3490	  0.3621	  0.3759	  0.3908	  0.4083	  0.4245	  0.4154	  0.3839	  0.3496	  0.3134	  0.2596	  0.2039	  0.1702	  0.1526	  0.1419	  0.1316	  0.1239	  0.1230	  0.1274	  0.1371	  0.1528	  0.1704	  0.1797	  0.1775	  0.1698	  0.1596	  0.1557	  0.1690	    0.20
263	263	  127.00	  182.00	  170.00	 0.26447	 0.31666	 0.29643	   63.07	  -15.93	   -5.85	  0.1882	  0.2006	  0.2093	  0.2147	  0.2524	  0.3112	  0.3392	  0.3549	  0.3683	  0.3835	  0.3997	  0.4195	  0.4391	  0.4355	  0.4119	  0.3907	  0.3714	  0.3332	  0.2904	  0.2685	  0.2574	  0.2486	  0.2376	  0.2291	  0.2291	  0.2356	  0.2481	  0.2670	  0.2872	  0.2983	  0.2969	  0.2895	  0.2796	  0.2755	  0.2912	    0.33
264	264	  170.00	  182.00	  170.00	 0.36630	 0.39378	 0.29623	   69.02	   -4.36	    4.45	  0.1912	  0.2039	  0.2128	  0.2183	  0.2564	  0.3149	  0.3394	  0.3532	  0.3673	  0.3835	  0.3987	  0.4137	  0.4295	  0.4292	  0.4157	  0.4091	  0.4096	  0.3948	  0.3774	  0.3793	  0.3838	  0.3827	  0.3762	  0.3711	  0.3739	  0.3821	  0.3948	  0.4118	  0.4288	  0.4385	  0.4398	  0.4362	  0.4308	  0.4294	  0.4436	    0.47
265	265	  212.00	  182.00	  170.00	 0.48959	 0.48795	 0.30968	   75.32	    5.26	   13.19	  0.2077	  0.2215	  0.2310	  0.2370	  0.2764	  0.3344	  0.3551	  0.3655	  0.3767	  0.3910	  0.4105	  0.4448	  0.4832	  0.4829	  0.4552	  0.4469	  0.4568	  0.4441	  0.4369	  0.4762	  0.5226	  0.5474	  0.5547	  0.5573	  0.5626	  0.5705	  0.5817	  0.5949	  0.6076	  0.6160	  0.6199	  0.6206	  0.6207	  0.6229	  0.6312	    0.65
266	266	  255.00	  182.00	  170.00	 0.63877	 0.59071	 0.31539	   81.33	   16.35	   22.67	  0.2289	  0.2440	  0.2546	  0.2612	  0.2977	  0.3482	  0.3616	  0.3671	  0.3737	  0.3840	  0.4093	  0.4702	  0.5391	  0.5377	  0.4887	  0.4757	  0.4941	  0.4778	  0.4766	  0.5610	  0.6725	  0.7474	  0.7852	  0.8045	  0.8157	  0.8234	  0.8314	  0.8396	  0.8464	  0.8520	  0.8586	  0.8636	  0.8691	  0.8721	  0.8709	    0.87
267	267	    0.00	  218.00	  170.00	 0.05465	 0.11726	 0.25093	   40.78	  -52.67	  -36.60	  0.1118	  0.1192	  0.1244	  0.1276	  0.1569	  0.2087	  0.2602	  0.2990	  0.3185	  0.3393	  0.3772	  0.4320	  0.4653	  0.4318	  0.3456	  0.2385	  0.1378	  0.0610	  0.0203	  0.0074	  0.0045	  0.0037	  0.0033	  0.0032	  0.0032	  0.0033	  0.0035	  0.0039	  0.0050	  0.0058	  0.0050	  0.0045	  0.0047	  0.0055	  0.0077	    0.01
268	268	   42.00	  218.00	  170.00	 0.12398	 0.21896	 0.32406	   53.92	  -48.99	  -25.92	  0.1833	  0.1954	  0.2039	  0.2093	  0.2495	  0.3157	  0.3597	  0.3877	  0.4050	  0.4241	  0.4510	  0.4912	  0.5278	  0.5211	  0.4734	  0.4043	  0.3227	  0.2291	  0.1447	  0.0935	  0.0683	  0.0555	  0.0462	  0.0404	  0.0395	  0.0417	  0.0469	  0.0562	  0.0679	  0.0739	  0.0708	  0.0641	  0.0565	  0.0539	  0.0643	    0.09
269	269	   85.00	  218.00	  170.00	 0.20656	 0.30794	 0.33120	   62.33	  -38.47	  -12.47	  0.1974	  0.2104	  0.2195	  0.2253	  0.2664	  0.3319	  0.3679	  0.3901	  0.4064	  0.4261	  0.4556	  0.5033	  0.5532	  0.5619	  0.5309	  0.4830	  0.4239	  0.3451	  0.2634	  0.2069	  0.1738	  0.1542	  0.1380	  0.1269	  0.1255	  0.1303	  0.1404	  0.1574	  0.1769	  0.1867	  0.1831	  0.1732	  0.1602	  0.1541	  0.1691	    0.21
270	270	  127.00	  218.00	  170.00	 0.29397	 0.38932	 0.33200	   68.71	  -28.57	   -1.61	  0.2041	  0.2176	  0.2271	  0.2330	  0.2743	  0.3379	  0.3684	  0.3866	  0.4022	  0.4223	  0.4541	  0.5067	  0.5655	  0.5836	  0.5644	  0.5329	  0.4944	  0.4348	  0.3670	  0.3180	  0.2862	  0.2651	  0.2458	  0.2326	  0.2315	  0.2384	  0.2520	  0.2732	  0.2965	  0.3085	  0.3054	  0.2946	  0.2801	  0.2731	  0.2896	    0.34
271	271	  170.00	  218.00	  170.00	 0.40631	 0.48188	 0.33415	   74.94	  -17.14	    8.84	  0.2136	  0.2277	  0.2375	  0.2437	  0.2837	  0.3444	  0.3705	  0.3862	  0.4018	  0.4226	  0.4552	  0.5085	  0.5685	  0.5919	  0.5833	  0.5691	  0.5538	  0.5203	  0.4775	  0.4484	  0.4272	  0.4107	  0.3936	  0.3816	  0.3819	  0.3903	  0.4053	  0.4274	  0.4502	  0.4620	  0.4607	  0.4520	  0.4395	  0.4330	  0.4499	    0.49
272	272	  212.00	  218.00	  170.00	 0.52285	 0.56950	 0.33730	   80.15	   -6.72	   17.35	  0.2271	  0.2420	  0.2526	  0.2591	  0.2973	  0.3536	  0.3752	  0.3881	  0.4025	  0.4219	  0.4543	  0.5106	  0.5759	  0.6039	  0.6004	  0.5951	  0.5940	  0.5791	  0.5613	  0.5617	  0.5644	  0.5634	  0.5582	  0.5546	  0.5573	  0.5642	  0.5755	  0.5901	  0.6046	  0.6132	  0.6153	  0.6135	  0.6100	  0.6099	  0.6194	    0.64
273	273	  255.00	  218.00	  170.00	 0.69667	 0.70198	 0.34086	   87.10	    4.29	   28.80	  0.2420	  0.2579	  0.2691	  0.2761	  0.3116	  0.3608	  0.3766	  0.3858	  0.3971	  0.4147	  0.4517	  0.5317	  0.6306	  0.6696	  0.6554	  0.6511	  0.6624	  0.6518	  0.6494	  0.6974	  0.7563	  0.7952	  0.8144	  0.8246	  0.8313	  0.8369	  0.8439	  0.8513	  0.8577	  0.8631	  0.8692	  0.8739	  0.8792	  0.8818	  0.8814	    0.88
274	274	    0.00	  255.00	  170.00	 0.07226	 0.16437	 0.28264	   47.54	  -63.08	  -30.38	  0.1357	  0.1447	  0.1509	  0.1549	  0.1881	  0.2451	  0.2944	  0.3301	  0.3493	  0.3718	  0.4153	  0.4892	  0.5530	  0.5408	  0.4610	  0.3480	  0.2298	  0.1249	  0.0536	  0.0223	  0.0121	  0.0084	  0.0066	  0.0057	  0.0055	  0.0058	  0.0065	  0.0084	  0.0115	  0.0133	  0.0121	  0.0104	  0.0092	  0.0099	  0.0137	    0.03
275	275	   42.00	  255.00	  170.00	 0.13625	 0.27007	 0.31747	   58.99	  -62.77	  -16.19	  0.1711	  0.1824	  0.1903	  0.1952	  0.2334	  0.2961	  0.3367	  0.3639	  0.3817	  0.4047	  0.4495	  0.5333	  0.6253	  0.6495	  0.6045	  0.5206	  0.4166	  0.3005	  0.1912	  0.1181	  0.0799	  0.0609	  0.0478	  0.0400	  0.0389	  0.0420	  0.0486	  0.0604	  0.0751	  0.0828	  0.0786	  0.0698	  0.0600	  0.0561	  0.0688	    0.11
276	276	   85.00	  255.00	  170.00	 0.21934	 0.36992	 0.34428	   67.27	  -53.71	   -5.87	  0.1968	  0.2097	  0.2189	  0.2246	  0.2657	  0.3306	  0.3670	  0.3911	  0.4092	  0.4333	  0.4814	  0.5707	  0.6740	  0.7151	  0.6906	  0.6283	  0.5441	  0.4396	  0.3266	  0.2377	  0.1825	  0.1515	  0.1280	  0.1129	  0.1110	  0.1170	  0.1299	  0.1515	  0.1763	  0.1887	  0.1834	  0.1698	  0.1522	  0.1437	  0.1627	    0.22
277	277	  127.00	  255.00	  170.00	 0.32151	 0.46952	 0.35554	   74.16	  -41.90	    4.39	  0.2164	  0.2306	  0.2406	  0.2470	  0.2875	  0.3493	  0.3803	  0.4006	  0.4181	  0.4429	  0.4907	  0.5830	  0.6947	  0.7502	  0.7428	  0.6998	  0.6375	  0.5544	  0.4560	  0.3712	  0.3127	  0.2774	  0.2488	  0.2298	  0.2275	  0.2356	  0.2523	  0.2788	  0.3083	  0.3231	  0.3178	  0.3026	  0.2821	  0.2706	  0.2910	    0.35
278	278	  170.00	  255.00	  170.00	 0.43711	 0.56892	 0.36928	   80.12	  -30.21	   12.74	  0.2359	  0.2515	  0.2625	  0.2693	  0.3099	  0.3695	  0.3963	  0.4146	  0.4319	  0.4570	  0.5058	  0.5992	  0.7131	  0.7755	  0.7794	  0.7514	  0.7078	  0.6470	  0.5712	  0.5037	  0.4544	  0.4236	  0.3979	  0.3806	  0.3788	  0.3868	  0.4031	  0.4283	  0.4550	  0.4685	  0.4651	  0.4524	  0.4347	  0.4244	  0.4427	    0.49
279	279	  212.00	  255.00	  170.00	 0.57876	 0.68662	 0.36918	   86.33	  -19.33	   23.48	  0.2471	  0.2633	  0.2747	  0.2819	  0.3185	  0.3716	  0.3938	  0.4097	  0.4268	  0.4521	  0.5032	  0.6022	  0.7260	  0.8010	  0.8187	  0.8068	  0.7832	  0.7475	  0.7005	  0.6590	  0.6267	  0.6065	  0.5898	  0.5792	  0.5791	  0.5856	  0.5985	  0.6172	  0.6364	  0.6469	  0.6467	  0.6406	  0.6316	  0.6271	  0.6383	    0.67
280	280	  255.00	  255.00	  170.00	 0.76839	 0.83624	 0.40046	   93.29	   -7.51	   31.26	  0.2801	  0.2986	  0.3116	  0.3197	  0.3579	  0.4119	  0.4322	  0.4471	  0.4647	  0.4906	  0.5395	  0.6339	  0.7545	  0.8327	  0.8608	  0.8656	  0.8652	  0.8617	  0.8551	  0.8528	  0.8479	  0.8457	  0.8448	  0.8461	  0.8487	  0.8525	  0.8585	  0.8652	  0.8713	  0.8766	  0.8824	  0.8870	  0.8917	  0.8946	  0.8945	    0.90
281	281	    0.00	    0.00	  212.00	 0.06450	 0.02820	 0.21517	   19.31	   50.78	  -66.89	  0.1686	  0.1798	  0.1876	  0.1925	  0.2332	  0.3016	  0.3299	  0.3246	  0.2987	  0.2565	  0.1892	  0.1055	  0.0497	  0.0242	  0.0126	  0.0084	  0.0075	  0.0072	  0.0067	  0.0072	  0.0102	  0.0195	  0.0327	  0.0353	  0.0275	  0.0272	  0.0466	  0.0962	  0.1706	  0.2405	  0.2870	  0.3119	  0.3219	  0.3289	  0.3458	    0.38
282	282	   42.00	    0.00	  212.00	 0.08924	 0.04215	 0.18630	   24.37	   52.16	  -52.17	  0.1693	  0.1805	  0.1883	  0.1933	  0.2312	  0.2878	  0.2975	  0.2775	  0.2469	  0.2060	  0.1484	  0.0886	  0.0487	  0.0244	  0.0121	  0.0087	  0.0085	  0.0077	  0.0077	  0.0120	  0.0256	  0.0529	  0.0828	  0.0914	  0.0806	  0.0806	  0.1108	  0.1735	  0.2516	  0.3160	  0.3562	  0.3768	  0.3849	  0.3903	  0.4062	    0.43
283	283	   85.00	    0.00	  212.00	 0.12809	 0.06263	 0.17532	   30.07	   56.56	  -39.92	  0.1729	  0.1843	  0.1923	  0.1973	  0.2351	  0.2869	  0.2867	  0.2593	  0.2258	  0.1848	  0.1308	  0.0804	  0.0470	  0.0235	  0.0111	  0.0082	  0.0086	  0.0077	  0.0080	  0.0170	  0.0477	  0.1015	  0.1518	  0.1692	  0.1593	  0.1607	  0.1976	  0.2652	  0.3406	  0.3981	  0.4320	  0.4488	  0.4554	  0.4602	  0.4744	    0.50
284	284	  127.00	    0.00	  212.00	 0.17101	 0.08506	 0.15905	   35.02	   61.03	  -27.57	  0.1664	  0.1775	  0.1851	  0.1900	  0.2255	  0.2721	  0.2653	  0.2341	  0.2001	  0.1612	  0.1124	  0.0695	  0.0420	  0.0206	  0.0094	  0.0072	  0.0077	  0.0068	  0.0074	  0.0208	  0.0718	  0.1570	  0.2289	  0.2580	  0.2549	  0.2598	  0.2972	  0.3587	  0.4213	  0.4658	  0.4913	  0.5030	  0.5082	  0.5128	  0.5246	    0.55
285	285	  170.00	    0.00	  212.00	 0.22411	 0.11119	 0.14220	   39.78	   66.99	  -15.12	  0.1623	  0.1731	  0.1806	  0.1853	  0.2186	  0.2594	  0.2454	  0.2090	  0.1734	  0.1348	  0.0900	  0.0543	  0.0326	  0.0155	  0.0071	  0.0056	  0.0060	  0.0054	  0.0063	  0.0210	  0.0909	  0.2156	  0.3198	  0.3698	  0.3823	  0.3939	  0.4274	  0.4757	  0.5214	  0.5524	  0.5695	  0.5778	  0.5815	  0.5853	  0.5948	    0.61
286	286	  212.00	    0.00	  212.00	 0.29527	 0.14598	 0.14060	   45.08	   73.74	   -5.57	  0.1707	  0.1820	  0.1899	  0.1948	  0.2292	  0.2689	  0.2489	  0.2063	  0.1669	  0.1265	  0.0810	  0.0476	  0.0281	  0.0132	  0.0062	  0.0049	  0.0052	  0.0049	  0.0058	  0.0217	  0.1115	  0.2831	  0.4308	  0.5131	  0.5511	  0.5732	  0.5974	  0.6240	  0.6470	  0.6626	  0.6725	  0.6785	  0.6832	  0.6874	  0.6937	    0.70
287	287	  255.00	    0.00	  212.00	 0.36470	 0.17833	 0.12003	   49.29	   80.16	    7.39	  0.1678	  0.1788	  0.1866	  0.1914	  0.2216	  0.2498	  0.2197	  0.1732	  0.1339	  0.0977	  0.0605	  0.0344	  0.0197	  0.0095	  0.0052	  0.0042	  0.0041	  0.0041	  0.0049	  0.0181	  0.1132	  0.3264	  0.5301	  0.6607	  0.7338	  0.7736	  0.7982	  0.8147	  0.8260	  0.8340	  0.8418	  0.8484	  0.8551	  0.8593	  0.8596	    0.86
288	288	    0.00	   36.00	  212.00	 0.05216	 0.03020	 0.25010	   20.12	   33.40	  -72.06	  0.1648	  0.1757	  0.1833	  0.1881	  0.2317	  0.3076	  0.3546	  0.3667	  0.3529	  0.3216	  0.2618	  0.1747	  0.1041	  0.0608	  0.0335	  0.0208	  0.0162	  0.0127	  0.0090	  0.0073	  0.0074	  0.0086	  0.0092	  0.0082	  0.0069	  0.0072	  0.0104	  0.0188	  0.0319	  0.0422	  0.0444	  0.0419	  0.0372	  0.0353	  0.0425	    0.06
289	289	   42.00	   36.00	  212.00	 0.10239	 0.06202	 0.29193	   29.92	   38.86	  -62.28	  0.2235	  0.2383	  0.2486	  0.2551	  0.3069	  0.3895	  0.4223	  0.4191	  0.3975	  0.3604	  0.2942	  0.2046	  0.1320	  0.0817	  0.0483	  0.0344	  0.0316	  0.0281	  0.0234	  0.0247	  0.0349	  0.0540	  0.0721	  0.0745	  0.0658	  0.0663	  0.0890	  0.1348	  0.1908	  0.2337	  0.2546	  0.2607	  0.2584	  0.2577	  0.2738	    0.31
290	290	   85.00	   36.00	  212.00	 0.15523	 0.09576	 0.27498	   37.07	   43.25	  -47.15	  0.2254	  0.2403	  0.2507	  0.2573	  0.3072	  0.3821	  0.4018	  0.3896	  0.3658	  0.3299	  0.2706	  0.1984	  0.1389	  0.0894	  0.0539	  0.0418	  0.0421	  0.0381	  0.0347	  0.0470	  0.0795	  0.1243	  0.1610	  0.1696	  0.1585	  0.1597	  0.1928	  0.2527	  0.3188	  0.3670	  0.3912	  0.4000	  0.3996	  0.4006	  0.4164	    0.45
291	291	  127.00	   36.00	  212.00	 0.21116	 0.13012	 0.25797	   42.78	   48.01	  -34.39	  0.2235	  0.2382	  0.2485	  0.2551	  0.3022	  0.3696	  0.3797	  0.3616	  0.3367	  0.3029	  0.2494	  0.1893	  0.1402	  0.0922	  0.0563	  0.0465	  0.0494	  0.0444	  0.0426	  0.0693	  0.1319	  0.2052	  0.2562	  0.2717	  0.2653	  0.2693	  0.3029	  0.3586	  0.4158	  0.4553	  0.4749	  0.4816	  0.4819	  0.4827	  0.4955	    0.52
292	292	  170.00	   36.00	  212.00	 0.27495	 0.16427	 0.23502	   47.53	   55.27	  -22.06	  0.2140	  0.2282	  0.2381	  0.2443	  0.2882	  0.3479	  0.3503	  0.3282	  0.3025	  0.2695	  0.2200	  0.1698	  0.1298	  0.0844	  0.0498	  0.0422	  0.0474	  0.0417	  0.0421	  0.0847	  0.1874	  0.2996	  0.3688	  0.3956	  0.4006	  0.4095	  0.4363	  0.4756	  0.5136	  0.5385	  0.5505	  0.5548	  0.5551	  0.5565	  0.5662	    0.59
293	293	  212.00	   36.00	  212.00	 0.36604	 0.21334	 0.23716	   53.31	   63.28	  -12.48	  0.2252	  0.2401	  0.2505	  0.2570	  0.3027	  0.3623	  0.3584	  0.3300	  0.3007	  0.2660	  0.2160	  0.1681	  0.1305	  0.0840	  0.0481	  0.0415	  0.0479	  0.0415	  0.0433	  0.1026	  0.2541	  0.4201	  0.5184	  0.5637	  0.5855	  0.5999	  0.6161	  0.6336	  0.6496	  0.6602	  0.6664	  0.6694	  0.6717	  0.6745	  0.6803	    0.69
294	294	  255.00	   36.00	  212.00	 0.44813	 0.25192	 0.21202	   57.26	   71.51	   -0.83	  0.2185	  0.2330	  0.2431	  0.2494	  0.2912	  0.3399	  0.3250	  0.2919	  0.2610	  0.2295	  0.1885	  0.1488	  0.1161	  0.0749	  0.0430	  0.0367	  0.0413	  0.0347	  0.0370	  0.0976	  0.2799	  0.5094	  0.6580	  0.7369	  0.7790	  0.8022	  0.8179	  0.8296	  0.8385	  0.8453	  0.8525	  0.8581	  0.8643	  0.8680	  0.8675	    0.86
295	295	    0.00	   72.00	  212.00	 0.05171	 0.04075	 0.26969	   23.92	   16.49	  -68.94	  0.1515	  0.1615	  0.1685	  0.1729	  0.2148	  0.2921	  0.3555	  0.3843	  0.3824	  0.3647	  0.3197	  0.2432	  0.1707	  0.1146	  0.0699	  0.0425	  0.0279	  0.0166	  0.0085	  0.0055	  0.0047	  0.0044	  0.0039	  0.0035	  0.0033	  0.0034	  0.0039	  0.0052	  0.0076	  0.0092	  0.0082	  0.0070	  0.0065	  0.0066	  0.0084	    0.01
296	296	   42.00	   72.00	  212.00	 0.10740	 0.08597	 0.34724	   35.19	   19.90	  -61.60	  0.2417	  0.2576	  0.2688	  0.2758	  0.3327	  0.4259	  0.4728	  0.4830	  0.4721	  0.4466	  0.3905	  0.3023	  0.2221	  0.1592	  0.1089	  0.0816	  0.0701	  0.0574	  0.0421	  0.0359	  0.0399	  0.0503	  0.0588	  0.0580	  0.0523	  0.0533	  0.0684	  0.0981	  0.1342	  0.1597	  0.1682	  0.1666	  0.1597	  0.1571	  0.1709	    0.21
297	297	   85.00	   72.00	  212.00	 0.17594	 0.13730	 0.33996	   43.85	   25.65	  -45.64	  0.2528	  0.2696	  0.2812	  0.2886	  0.3446	  0.4312	  0.4640	  0.4647	  0.4522	  0.4283	  0.3792	  0.3061	  0.2387	  0.1785	  0.1280	  0.1046	  0.1000	  0.0905	  0.0782	  0.0826	  0.1049	  0.1370	  0.1616	  0.1648	  0.1547	  0.1564	  0.1845	  0.2350	  0.2904	  0.3292	  0.3460	  0.3492	  0.3451	  0.3443	  0.3597	    0.40
298	298	  127.00	   72.00	  212.00	 0.23759	 0.17750	 0.32394	   49.19	   32.47	  -34.04	  0.2510	  0.2676	  0.2792	  0.2865	  0.3405	  0.4216	  0.4448	  0.4392	  0.4251	  0.4016	  0.3556	  0.2939	  0.2379	  0.1799	  0.1299	  0.1117	  0.1132	  0.1038	  0.0961	  0.1198	  0.1713	  0.2261	  0.2617	  0.2692	  0.2613	  0.2650	  0.2957	  0.3471	  0.3999	  0.4359	  0.4518	  0.4555	  0.4526	  0.4516	  0.4667	    0.50
299	299	  170.00	   72.00	  212.00	 0.31115	 0.22317	 0.30837	   54.36	   39.67	  -22.74	  0.2496	  0.2661	  0.2776	  0.2849	  0.3372	  0.4125	  0.4273	  0.4155	  0.3989	  0.3751	  0.3314	  0.2800	  0.2354	  0.1795	  0.1292	  0.1161	  0.1233	  0.1125	  0.1092	  0.1588	  0.2527	  0.3368	  0.3821	  0.3965	  0.3977	  0.4050	  0.4292	  0.4653	  0.5010	  0.5241	  0.5343	  0.5361	  0.5344	  0.5349	  0.5458	    0.57
300	300	  212.00	   72.00	  212.00	 0.41021	 0.28418	 0.30539	   60.26	   47.33	  -12.10	  0.2528	  0.2695	  0.2812	  0.2885	  0.3407	  0.4140	  0.4233	  0.4081	  0.3906	  0.3674	  0.3267	  0.2832	  0.2459	  0.1889	  0.1350	  0.1238	  0.1353	  0.1231	  0.1237	  0.2016	  0.3495	  0.4770	  0.5410	  0.5681	  0.5825	  0.5940	  0.6078	  0.6235	  0.6384	  0.6481	  0.6528	  0.6549	  0.6559	  0.6582	  0.6650	    0.68
301	301	  255.00	   72.00	  212.00	 0.50704	 0.32678	 0.29078	   63.90	   59.18	   -3.51	  0.2544	  0.2712	  0.2829	  0.2904	  0.3420	  0.4106	  0.4107	  0.3879	  0.3654	  0.3401	  0.3022	  0.2657	  0.2342	  0.1764	  0.1188	  0.1060	  0.1174	  0.1038	  0.1060	  0.1996	  0.3994	  0.5965	  0.7090	  0.7661	  0.7963	  0.8133	  0.8259	  0.8361	  0.8441	  0.8507	  0.8571	  0.8622	  0.8679	  0.8710	  0.8701	    0.87
302	302	    0.00	  109.00	  212.00	 0.05386	 0.05469	 0.28189	   28.03	    1.35	  -63.90	  0.1423	  0.1516	  0.1583	  0.1623	  0.2036	  0.2800	  0.3507	  0.3898	  0.3971	  0.3909	  0.3613	  0.3018	  0.2366	  0.1754	  0.1169	  0.0728	  0.0434	  0.0217	  0.0089	  0.0049	  0.0039	  0.0036	  0.0033	  0.0031	  0.0031	  0.0032	  0.0035	  0.0043	  0.0057	  0.0067	  0.0059	  0.0051	  0.0048	  0.0056	  0.0072	    0.01
303	303	   42.00	  109.00	  212.00	 0.11502	 0.11456	 0.37063	   40.34	    3.30	  -56.03	  0.2459	  0.2621	  0.2736	  0.2806	  0.3374	  0.4311	  0.4831	  0.5008	  0.4988	  0.4851	  0.4444	  0.3714	  0.2998	  0.2363	  0.1781	  0.1398	  0.1177	  0.0922	  0.0645	  0.0503	  0.0487	  0.0532	  0.0560	  0.0534	  0.0495	  0.0509	  0.0621	  0.0831	  0.1085	  0.1252	  0.1276	  0.1227	  0.1150	  0.1118	  0.1238	    0.16
304	304	   85.00	  109.00	  212.00	 0.19503	 0.18143	 0.38192	   49.67	   10.44	  -41.48	  0.2660	  0.2836	  0.2958	  0.3036	  0.3623	  0.4557	  0.4969	  0.5072	  0.5046	  0.4931	  0.4574	  0.3932	  0.3299	  0.2693	  0.2121	  0.1801	  0.1679	  0.1487	  0.1247	  0.1187	  0.1303	  0.1500	  0.1635	  0.1626	  0.1551	  0.1575	  0.1804	  0.2204	  0.2641	  0.2929	  0.3024	  0.3004	  0.2928	  0.2900	  0.3055	    0.35
305	305	  127.00	  109.00	  212.00	 0.26182	 0.22991	 0.37437	   55.06	   17.47	  -31.15	  0.2688	  0.2867	  0.2990	  0.3069	  0.3654	  0.4560	  0.4892	  0.4933	  0.4895	  0.4780	  0.4438	  0.3868	  0.3322	  0.2752	  0.2204	  0.1958	  0.1927	  0.1771	  0.1602	  0.1730	  0.2068	  0.2421	  0.2631	  0.2648	  0.2582	  0.2623	  0.2885	  0.3315	  0.3762	  0.4054	  0.4161	  0.4160	  0.4104	  0.4086	  0.4244	    0.46
306	306	  170.00	  109.00	  212.00	 0.34942	 0.29004	 0.36550	   60.78	   25.50	  -20.07	  0.2722	  0.2903	  0.3029	  0.3108	  0.3687	  0.4554	  0.4803	  0.4782	  0.4716	  0.4593	  0.4268	  0.3806	  0.3383	  0.2829	  0.2274	  0.2099	  0.2164	  0.2012	  0.1921	  0.2360	  0.3104	  0.3691	  0.3974	  0.4040	  0.4042	  0.4114	  0.4334	  0.4664	  0.4994	  0.5203	  0.5279	  0.5279	  0.5239	  0.5233	  0.5359	    0.56
307	307	  212.00	  109.00	  212.00	 0.45669	 0.36419	 0.36914	   66.84	   32.68	  -10.13	  0.2781	  0.2965	  0.3094	  0.3174	  0.3766	  0.4631	  0.4836	  0.4782	  0.4711	  0.4597	  0.4311	  0.3950	  0.3634	  0.3067	  0.2453	  0.2303	  0.2444	  0.2279	  0.2252	  0.3047	  0.4299	  0.5202	  0.5600	  0.5760	  0.5868	  0.5970	  0.6094	  0.6239	  0.6378	  0.6467	  0.6507	  0.6514	  0.6514	  0.6531	  0.6610	    0.68
308	308	  255.00	  109.00	  212.00	 0.57078	 0.42245	 0.36733	   71.04	   44.65	   -2.64	  0.2869	  0.3058	  0.3191	  0.3274	  0.3871	  0.4718	  0.4859	  0.4747	  0.4628	  0.4480	  0.4214	  0.3980	  0.3778	  0.3123	  0.2332	  0.2138	  0.2334	  0.2147	  0.2156	  0.3302	  0.5194	  0.6704	  0.7506	  0.7907	  0.8122	  0.8248	  0.8354	  0.8448	  0.8526	  0.8590	  0.8652	  0.8704	  0.8758	  0.8791	  0.8777	    0.88
309	309	    0.00	  145.00	  212.00	 0.06059	 0.07545	 0.31648	   33.01	  -12.50	  -60.80	  0.1461	  0.1558	  0.1625	  0.1668	  0.2104	  0.2928	  0.3751	  0.4256	  0.4409	  0.4445	  0.4290	  0.3859	  0.3292	  0.2619	  0.1855	  0.1173	  0.0654	  0.0285	  0.0096	  0.0044	  0.0033	  0.0031	  0.0030	  0.0030	  0.0032	  0.0033	  0.0036	  0.0042	  0.0055	  0.0064	  0.0057	  0.0052	  0.0052	  0.0059	  0.0075	    0.01
310	310	   42.00	  145.00	  212.00	 0.12574	 0.15118	 0.40988	   45.79	  -12.80	  -51.85	  0.2546	  0.2714	  0.2832	  0.2905	  0.3515	  0.4526	  0.5131	  0.5395	  0.5465	  0.5444	  0.5173	  0.4593	  0.3977	  0.3364	  0.2722	  0.2210	  0.1814	  0.1351	  0.0896	  0.0642	  0.0552	  0.0533	  0.0510	  0.0470	  0.0446	  0.0464	  0.0545	  0.0697	  0.0882	  0.0994	  0.0984	  0.0924	  0.0843	  0.0811	  0.0926	    0.12
311	311	   85.00	  145.00	  212.00	 0.20517	 0.22109	 0.40332	   54.14	   -3.84	  -36.61	  0.2666	  0.2843	  0.2966	  0.3043	  0.3636	  0.4586	  0.5047	  0.5218	  0.5274	  0.5270	  0.5063	  0.4609	  0.4129	  0.3595	  0.3015	  0.2625	  0.2393	  0.2048	  0.1656	  0.1475	  0.1474	  0.1545	  0.1574	  0.1529	  0.1479	  0.1511	  0.1687	  0.1986	  0.2312	  0.2515	  0.2544	  0.2490	  0.2389	  0.2341	  0.2494	    0.29
312	312	  127.00	  145.00	  212.00	 0.28592	 0.28668	 0.41795	   60.49	    3.73	  -27.55	  0.2827	  0.3013	  0.3144	  0.3227	  0.3854	  0.4838	  0.5250	  0.5373	  0.5421	  0.5423	  0.5216	  0.4764	  0.4305	  0.3794	  0.3248	  0.2952	  0.2844	  0.2582	  0.2284	  0.2261	  0.2404	  0.2568	  0.2639	  0.2603	  0.2555	  0.2605	  0.2823	  0.3174	  0.3541	  0.3770	  0.3823	  0.3780	  0.3688	  0.3652	  0.3814	    0.42
313	313	  170.00	  145.00	  212.00	 0.38759	 0.36054	 0.41651	   66.56	   13.15	  -16.90	  0.2914	  0.3106	  0.3241	  0.3326	  0.3950	  0.4911	  0.5246	  0.5316	  0.5352	  0.5350	  0.5148	  0.4759	  0.4389	  0.3894	  0.3351	  0.3151	  0.3192	  0.2993	  0.2829	  0.3152	  0.3654	  0.3991	  0.4112	  0.4113	  0.4115	  0.4191	  0.4387	  0.4674	  0.4963	  0.5139	  0.5184	  0.5153	  0.5090	  0.5069	  0.5202	    0.55
314	314	  212.00	  145.00	  212.00	 0.49020	 0.42998	 0.40624	   71.56	   21.67	   -6.97	  0.2933	  0.3127	  0.3263	  0.3348	  0.3952	  0.4851	  0.5115	  0.5138	  0.5153	  0.5144	  0.4984	  0.4743	  0.4525	  0.4037	  0.3438	  0.3273	  0.3409	  0.3224	  0.3162	  0.3866	  0.4848	  0.5473	  0.5710	  0.5797	  0.5873	  0.5964	  0.6085	  0.6230	  0.6371	  0.6460	  0.6489	  0.6485	  0.6470	  0.6479	  0.6560	    0.67
315	315	  255.00	  145.00	  212.00	 0.61409	 0.50220	 0.40618	   76.21	   32.75	    1.06	  0.3054	  0.3256	  0.3397	  0.3486	  0.4086	  0.4952	  0.5147	  0.5115	  0.5078	  0.5028	  0.4898	  0.4837	  0.4798	  0.4236	  0.3442	  0.3237	  0.3453	  0.3252	  0.3246	  0.4359	  0.5980	  0.7132	  0.7714	  0.8007	  0.8166	  0.8264	  0.8354	  0.8441	  0.8514	  0.8575	  0.8636	  0.8682	  0.8736	  0.8763	  0.8751	    0.87
316	316	    0.00	  182.00	  212.00	 0.06963	 0.10611	 0.35587	   38.92	  -28.51	  -56.42	  0.1597	  0.1703	  0.1777	  0.1824	  0.2274	  0.3129	  0.4026	  0.4624	  0.4860	  0.5002	  0.5031	  0.4866	  0.4489	  0.3813	  0.2878	  0.1887	  0.1038	  0.0430	  0.0132	  0.0049	  0.0034	  0.0030	  0.0030	  0.0030	  0.0032	  0.0033	  0.0036	  0.0043	  0.0056	  0.0066	  0.0058	  0.0053	  0.0055	  0.0066	  0.0085	    0.01
317	317	   42.00	  182.00	  212.00	 0.13047	 0.18775	 0.42395	   50.43	  -29.61	  -45.66	  0.2500	  0.2665	  0.2781	  0.2854	  0.3448	  0.4442	  0.5091	  0.5422	  0.5567	  0.5659	  0.5586	  0.5294	  0.4943	  0.4460	  0.3819	  0.3164	  0.2515	  0.1775	  0.1110	  0.0733	  0.0569	  0.0494	  0.0435	  0.0391	  0.0378	  0.0395	  0.0452	  0.0554	  0.0685	  0.0757	  0.0730	  0.0668	  0.0601	  0.0580	  0.0678	    0.10
318	318	   85.00	  182.00	  212.00	 0.21725	 0.26926	 0.42657	   58.90	  -18.62	  -31.36	  0.2711	  0.2891	  0.3016	  0.3095	  0.3694	  0.4654	  0.5152	  0.5378	  0.5494	  0.5583	  0.5541	  0.5344	  0.5114	  0.4717	  0.4169	  0.3699	  0.3293	  0.2719	  0.2118	  0.1775	  0.1631	  0.1575	  0.1505	  0.1428	  0.1399	  0.1437	  0.1568	  0.1788	  0.2036	  0.2177	  0.2164	  0.2086	  0.1969	  0.1916	  0.2060	    0.25
319	319	  127.00	  182.00	  212.00	 0.30400	 0.34309	 0.44151	   65.21	   -9.73	  -22.35	  0.2890	  0.3081	  0.3214	  0.3298	  0.3925	  0.4909	  0.5350	  0.5530	  0.5641	  0.5735	  0.5702	  0.5511	  0.5307	  0.4937	  0.4433	  0.4082	  0.3846	  0.3404	  0.2917	  0.2712	  0.2674	  0.2670	  0.2614	  0.2529	  0.2499	  0.2555	  0.2729	  0.3007	  0.3303	  0.3474	  0.3476	  0.3396	  0.3268	  0.3213	  0.3374	    0.38
320	320	  170.00	  182.00	  212.00	 0.40969	 0.42382	 0.44344	   71.13	    0.31	  -12.37	  0.2967	  0.3163	  0.3300	  0.3386	  0.4018	  0.4996	  0.5379	  0.5522	  0.5643	  0.5756	  0.5713	  0.5488	  0.5276	  0.4939	  0.4506	  0.4306	  0.4281	  0.4017	  0.3744	  0.3837	  0.4021	  0.4099	  0.4057	  0.3990	  0.3997	  0.4077	  0.4241	  0.4480	  0.4725	  0.4859	  0.4866	  0.4804	  0.4707	  0.4664	  0.4816	    0.52
321	321	  212.00	  182.00	  212.00	 0.51294	 0.49782	 0.43988	   75.93	    8.86	   -3.65	  0.3025	  0.3225	  0.3365	  0.3453	  0.4078	  0.5018	  0.5343	  0.5441	  0.5543	  0.5647	  0.5627	  0.5501	  0.5390	  0.5073	  0.4628	  0.4485	  0.4571	  0.4393	  0.4284	  0.4711	  0.5238	  0.5516	  0.5587	  0.5602	  0.5648	  0.5727	  0.5842	  0.5988	  0.6132	  0.6219	  0.6243	  0.6233	  0.6209	  0.6220	  0.6307	    0.65
322	322	  255.00	  182.00	  212.00	 0.66033	 0.59766	 0.45312	   81.71	   19.56	    4.69	  0.3359	  0.3580	  0.3736	  0.3833	  0.4445	  0.5319	  0.5551	  0.5573	  0.5604	  0.5649	  0.5655	  0.5746	  0.5871	  0.5522	  0.4905	  0.4739	  0.4912	  0.4733	  0.4714	  0.5570	  0.6699	  0.7452	  0.7831	  0.8024	  0.8133	  0.8207	  0.8285	  0.8364	  0.8435	  0.8492	  0.8550	  0.8594	  0.8644	  0.8672	  0.8666	    0.87
323	323	    0.00	  218.00	  212.00	 0.08482	 0.14820	 0.40481	   45.38	  -42.23	  -51.90	  0.1878	  0.2002	  0.2089	  0.2144	  0.2663	  0.3623	  0.4536	  0.5131	  0.5389	  0.5593	  0.5743	  0.5788	  0.5646	  0.5074	  0.4090	  0.2897	  0.1747	  0.0828	  0.0294	  0.0106	  0.0058	  0.0045	  0.0038	  0.0038	  0.0038	  0.0038	  0.0041	  0.0052	  0.0074	  0.0088	  0.0077	  0.0065	  0.0067	  0.0080	  0.0108	    0.02
324	324	   42.00	  218.00	  212.00	 0.15155	 0.24380	 0.45647	   56.47	  -42.52	  -39.24	  0.2603	  0.2775	  0.2895	  0.2971	  0.3588	  0.4622	  0.5306	  0.5687	  0.5891	  0.6076	  0.6184	  0.6175	  0.6109	  0.5783	  0.5163	  0.4371	  0.3469	  0.2449	  0.1538	  0.0991	  0.0725	  0.0593	  0.0496	  0.0435	  0.0424	  0.0447	  0.0504	  0.0606	  0.0738	  0.0807	  0.0769	  0.0699	  0.0617	  0.0586	  0.0689	    0.10
325	325	   85.00	  218.00	  212.00	 0.24442	 0.33789	 0.46894	   64.79	  -31.81	  -26.35	  0.2888	  0.3079	  0.3212	  0.3296	  0.3933	  0.4947	  0.5494	  0.5774	  0.5949	  0.6126	  0.6246	  0.6303	  0.6350	  0.6137	  0.5658	  0.5100	  0.4474	  0.3640	  0.2784	  0.2215	  0.1896	  0.1713	  0.1553	  0.1438	  0.1416	  0.1463	  0.1579	  0.1772	  0.1998	  0.2115	  0.2075	  0.1968	  0.1826	  0.1755	  0.1904	    0.23
326	326	  127.00	  218.00	  212.00	 0.33268	 0.41740	 0.47893	   70.69	  -22.99	  -17.36	  0.3051	  0.3252	  0.3393	  0.3482	  0.4133	  0.5158	  0.5638	  0.5859	  0.6021	  0.6202	  0.6331	  0.6409	  0.6496	  0.6334	  0.5935	  0.5541	  0.5135	  0.4484	  0.3767	  0.3306	  0.3026	  0.2833	  0.2638	  0.2495	  0.2479	  0.2548	  0.2692	  0.2923	  0.3176	  0.3307	  0.3267	  0.3145	  0.2984	  0.2902	  0.3074	    0.35
327	327	  170.00	  218.00	  212.00	 0.43156	 0.49595	 0.47341	   75.82	  -13.32	   -7.88	  0.3104	  0.3309	  0.3453	  0.3544	  0.4183	  0.5170	  0.5574	  0.5754	  0.5915	  0.6104	  0.6237	  0.6314	  0.6413	  0.6302	  0.6004	  0.5777	  0.5599	  0.5188	  0.4704	  0.4451	  0.4294	  0.4149	  0.3970	  0.3837	  0.3835	  0.3920	  0.4076	  0.4309	  0.4557	  0.4683	  0.4655	  0.4549	  0.4401	  0.4325	  0.4499	    0.49
328	328	  212.00	  218.00	  212.00	 0.55212	 0.58374	 0.47281	   80.95	   -2.67	    1.04	  0.3224	  0.3436	  0.3586	  0.3679	  0.4290	  0.5218	  0.5569	  0.5727	  0.5898	  0.6098	  0.6218	  0.6216	  0.6236	  0.6177	  0.6041	  0.5964	  0.5947	  0.5817	  0.5667	  0.5684	  0.5714	  0.5709	  0.5667	  0.5639	  0.5666	  0.5730	  0.5834	  0.5970	  0.6104	  0.6186	  0.6206	  0.6201	  0.6181	  0.6189	  0.6278	    0.65
329	329	  255.00	  218.00	  212.00	 0.72071	 0.70843	 0.49319	   87.41	    8.04	    9.82	  0.3622	  0.3861	  0.4028	  0.4133	  0.4735	  0.5592	  0.5851	  0.5936	  0.6040	  0.6177	  0.6320	  0.6571	  0.6904	  0.6859	  0.6538	  0.6441	  0.6542	  0.6418	  0.6392	  0.6898	  0.7523	  0.7935	  0.8137	  0.8243	  0.8313	  0.8371	  0.8446	  0.8525	  0.8597	  0.8659	  0.8720	  0.8770	  0.8822	  0.8854	  0.8852	    0.89
330	330	    0.00	  255.00	  212.00	 0.10859	 0.20610	 0.42375	   52.52	  -53.89	  -42.02	  0.2136	  0.2278	  0.2377	  0.2438	  0.3002	  0.3981	  0.4746	  0.5227	  0.5468	  0.5697	  0.5950	  0.6214	  0.6374	  0.6052	  0.5243	  0.4136	  0.2933	  0.1775	  0.0881	  0.0416	  0.0232	  0.0160	  0.0117	  0.0095	  0.0093	  0.0100	  0.0120	  0.0162	  0.0224	  0.0260	  0.0238	  0.0199	  0.0168	  0.0166	  0.0228	    0.04
331	331	   42.00	  255.00	  212.00	 0.17698	 0.30773	 0.46919	   62.32	  -53.41	  -30.66	  0.2561	  0.2731	  0.2849	  0.2923	  0.3573	  0.4662	  0.5335	  0.5708	  0.5927	  0.6174	  0.6450	  0.6757	  0.7058	  0.6973	  0.6452	  0.5623	  0.4597	  0.3415	  0.2251	  0.1431	  0.0979	  0.0750	  0.0589	  0.0492	  0.0479	  0.0517	  0.0598	  0.0746	  0.0927	  0.1020	  0.0970	  0.0864	  0.0740	  0.0690	  0.0838	    0.13
332	332	   85.00	  255.00	  212.00	 0.26303	 0.40522	 0.48871	   69.84	  -45.72	  -19.95	  0.2853	  0.3043	  0.3174	  0.3257	  0.3914	  0.4987	  0.5566	  0.5876	  0.6091	  0.6349	  0.6647	  0.7019	  0.7437	  0.7511	  0.7185	  0.6570	  0.5754	  0.4724	  0.3582	  0.2661	  0.2073	  0.1736	  0.1478	  0.1310	  0.1286	  0.1352	  0.1494	  0.1728	  0.2000	  0.2136	  0.2075	  0.1926	  0.1730	  0.1632	  0.1828	    0.24
333	333	  127.00	  255.00	  212.00	 0.36081	 0.49771	 0.50383	   75.93	  -35.94	  -11.17	  0.3130	  0.3336	  0.3482	  0.3572	  0.4222	  0.5246	  0.5746	  0.6011	  0.6217	  0.6479	  0.6802	  0.7216	  0.7688	  0.7845	  0.7641	  0.7187	  0.6562	  0.5733	  0.4745	  0.3893	  0.3303	  0.2944	  0.2654	  0.2458	  0.2431	  0.2511	  0.2677	  0.2948	  0.3245	  0.3393	  0.3335	  0.3177	  0.2962	  0.2849	  0.3048	    0.36
334	334	  170.00	  255.00	  212.00	 0.47710	 0.59544	 0.52278	   81.59	  -25.17	   -3.51	  0.3429	  0.3656	  0.3815	  0.3914	  0.4561	  0.5550	  0.5989	  0.6218	  0.6421	  0.6679	  0.6989	  0.7390	  0.7867	  0.8078	  0.7973	  0.7659	  0.7219	  0.6616	  0.5863	  0.5197	  0.4711	  0.4408	  0.4156	  0.3986	  0.3965	  0.4039	  0.4193	  0.4439	  0.4703	  0.4833	  0.4796	  0.4671	  0.4505	  0.4405	  0.4579	    0.51
335	335	  212.00	  255.00	  212.00	 0.62439	 0.71526	 0.53529	   87.74	  -14.58	    5.73	  0.3719	  0.3964	  0.4136	  0.4244	  0.4868	  0.5786	  0.6152	  0.6331	  0.6520	  0.6770	  0.7084	  0.7514	  0.8047	  0.8340	  0.8348	  0.8187	  0.7947	  0.7606	  0.7158	  0.6768	  0.6467	  0.6280	  0.6127	  0.6033	  0.6035	  0.6095	  0.6219	  0.6399	  0.6587	  0.6690	  0.6690	  0.6634	  0.6558	  0.6522	  0.6636	    0.69
336	336	  255.00	  255.00	  212.00	 0.79563	 0.85146	 0.54830	   93.94	   -4.93	   15.04	  0.3921	  0.4180	  0.4361	  0.4475	  0.5084	  0.5970	  0.6289	  0.6452	  0.6648	  0.6905	  0.7232	  0.7682	  0.8257	  0.8622	  0.8733	  0.8723	  0.8696	  0.8651	  0.8578	  0.8554	  0.8501	  0.8476	  0.8465	  0.8478	  0.8503	  0.8540	  0.8602	  0.8673	  0.8742	  0.8797	  0.8852	  0.8899	  0.8947	  0.8978	  0.8982	    0.90
337	337	    0.00	    0.00	  255.00	 0.12311	 0.05627	 0.33334	   28.45	   60.17	  -71.21	  0.2690	  0.2868	  0.2992	  0.3070	  0.3709	  0.4746	  0.5102	  0.4966	  0.4574	  0.3965	  0.2977	  0.1709	  0.0834	  0.0415	  0.0212	  0.0138	  0.0128	  0.0135	  0.0129	  0.0142	  0.0232	  0.0496	  0.0864	  0.0961	  0.0769	  0.0747	  0.1182	  0.2209	  0.3655	  0.5071	  0.6197	  0.7009	  0.7571	  0.7922	  0.8127	    0.82
338	338	   42.00	    0.00	  255.00	 0.13949	 0.06457	 0.27954	   30.53	   61.90	  -59.19	  0.2515	  0.2682	  0.2797	  0.2871	  0.3446	  0.4312	  0.4464	  0.4172	  0.3715	  0.3103	  0.2239	  0.1306	  0.0681	  0.0331	  0.0157	  0.0110	  0.0110	  0.0106	  0.0107	  0.0167	  0.0365	  0.0796	  0.1317	  0.1481	  0.1275	  0.1254	  0.1765	  0.2854	  0.4242	  0.5471	  0.6362	  0.6953	  0.7337	  0.7571	  0.7721	    0.78
339	339	   85.00	    0.00	  255.00	 0.17144	 0.08221	 0.25240	   34.44	   63.75	  -47.79	  0.2429	  0.2589	  0.2702	  0.2772	  0.3321	  0.4106	  0.4133	  0.3746	  0.3265	  0.2678	  0.1896	  0.1137	  0.0639	  0.0312	  0.0146	  0.0106	  0.0112	  0.0103	  0.0107	  0.0217	  0.0578	  0.1251	  0.1950	  0.2199	  0.2017	  0.2010	  0.2560	  0.3629	  0.4873	  0.5898	  0.6596	  0.7033	  0.7298	  0.7458	  0.7594	    0.77
340	340	  127.00	    0.00	  255.00	 0.21738	 0.10682	 0.23561	   39.04	   67.07	  -36.80	  0.2408	  0.2567	  0.2679	  0.2749	  0.3280	  0.3996	  0.3925	  0.3474	  0.2980	  0.2409	  0.1684	  0.1032	  0.0610	  0.0298	  0.0133	  0.0100	  0.0110	  0.0099	  0.0106	  0.0273	  0.0861	  0.1858	  0.2782	  0.3153	  0.3038	  0.3063	  0.3613	  0.4585	  0.5632	  0.6443	  0.6982	  0.7314	  0.7521	  0.7642	  0.7752	    0.79
341	341	  170.00	    0.00	  255.00	 0.27343	 0.13619	 0.22358	   43.68	   71.24	  -26.52	  0.2371	  0.2528	  0.2638	  0.2706	  0.3230	  0.3903	  0.3769	  0.3283	  0.2785	  0.2228	  0.1538	  0.0952	  0.0580	  0.0281	  0.0122	  0.0093	  0.0106	  0.0093	  0.0104	  0.0322	  0.1162	  0.2546	  0.3744	  0.4295	  0.4318	  0.4395	  0.4893	  0.5690	  0.6493	  0.7090	  0.7485	  0.7731	  0.7893	  0.7991	  0.8063	    0.81
342	342	  212.00	    0.00	  255.00	 0.33148	 0.16550	 0.20800	   47.68	   75.75	  -16.53	  0.2318	  0.2470	  0.2578	  0.2645	  0.3143	  0.3753	  0.3562	  0.3045	  0.2544	  0.2007	  0.1360	  0.0840	  0.0516	  0.0245	  0.0105	  0.0083	  0.0093	  0.0082	  0.0095	  0.0344	  0.1400	  0.3180	  0.4700	  0.5506	  0.5752	  0.5915	  0.6314	  0.6874	  0.7400	  0.7792	  0.8070	  0.8257	  0.8397	  0.8483	  0.8503	    0.85
343	343	  255.00	    0.00	  255.00	 0.39144	 0.19456	 0.18918	   51.22	   80.50	   -6.51	  0.2229	  0.2376	  0.2479	  0.2544	  0.3004	  0.3544	  0.3302	  0.2765	  0.2268	  0.1752	  0.1153	  0.0701	  0.0429	  0.0200	  0.0087	  0.0069	  0.0076	  0.0069	  0.0082	  0.0330	  0.1553	  0.3733	  0.5610	  0.6761	  0.7398	  0.7748	  0.7973	  0.8136	  0.8253	  0.8342	  0.8429	  0.8499	  0.8571	  0.8615	  0.8615	    0.86
344	344	    0.00	   36.00	  255.00	 0.07771	 0.04013	 0.34908	   23.72	   44.79	  -81.66	  0.2454	  0.2616	  0.2729	  0.2800	  0.3429	  0.4509	  0.5102	  0.5175	  0.4893	  0.4366	  0.3444	  0.2183	  0.1220	  0.0677	  0.0359	  0.0222	  0.0182	  0.0154	  0.0115	  0.0099	  0.0114	  0.0156	  0.0197	  0.0189	  0.0154	  0.0158	  0.0246	  0.0457	  0.0772	  0.1035	  0.1137	  0.1134	  0.1071	  0.1045	  0.1181	    0.16
345	345	   42.00	   36.00	  255.00	 0.12790	 0.07148	 0.37130	   32.15	   47.49	  -70.25	  0.2840	  0.3027	  0.3159	  0.3241	  0.3924	  0.5033	  0.5462	  0.5396	  0.5077	  0.4548	  0.3633	  0.2396	  0.1435	  0.0847	  0.0485	  0.0336	  0.0310	  0.0292	  0.0251	  0.0261	  0.0371	  0.0617	  0.0882	  0.0930	  0.0798	  0.0793	  0.1109	  0.1777	  0.2623	  0.3318	  0.3720	  0.3906	  0.3947	  0.3980	  0.4172	    0.46
346	346	   85.00	   36.00	  255.00	 0.16538	 0.09423	 0.34725	   36.78	   50.28	  -58.86	  0.2860	  0.3049	  0.3181	  0.3264	  0.3935	  0.4959	  0.5219	  0.5011	  0.4632	  0.4097	  0.3243	  0.2229	  0.1450	  0.0867	  0.0483	  0.0358	  0.0359	  0.0324	  0.0294	  0.0408	  0.0715	  0.1172	  0.1570	  0.1660	  0.1524	  0.1531	  0.1910	  0.2627	  0.3445	  0.4058	  0.4376	  0.4489	  0.4485	  0.4480	  0.4663	    0.51
347	347	  127.00	   36.00	  255.00	 0.22372	 0.12807	 0.33140	   42.47	   55.21	  -46.75	  0.2873	  0.3063	  0.3196	  0.3280	  0.3947	  0.4925	  0.5059	  0.4747	  0.4334	  0.3799	  0.2991	  0.2125	  0.1463	  0.0883	  0.0481	  0.0374	  0.0402	  0.0353	  0.0335	  0.0595	  0.1223	  0.2002	  0.2576	  0.2747	  0.2655	  0.2691	  0.3087	  0.3772	  0.4496	  0.5007	  0.5262	  0.5347	  0.5336	  0.5332	  0.5484	    0.58
348	348	  170.00	   36.00	  255.00	 0.28626	 0.16143	 0.31709	   47.16	   61.31	  -36.50	  0.2905	  0.3096	  0.3230	  0.3314	  0.3963	  0.4875	  0.4910	  0.4527	  0.4087	  0.3544	  0.2758	  0.1982	  0.1401	  0.0834	  0.0436	  0.0349	  0.0393	  0.0337	  0.0336	  0.0733	  0.1722	  0.2876	  0.3654	  0.3943	  0.3945	  0.4022	  0.4383	  0.4955	  0.5527	  0.5918	  0.6110	  0.6177	  0.6171	  0.6173	  0.6296	    0.66
349	349	  212.00	   36.00	  255.00	 0.37983	 0.21555	 0.32196	   53.55	   66.74	  -26.23	  0.2991	  0.3189	  0.3328	  0.3414	  0.4075	  0.4973	  0.4962	  0.4556	  0.4120	  0.3591	  0.2826	  0.2081	  0.1521	  0.0925	  0.0488	  0.0399	  0.0465	  0.0402	  0.0414	  0.0988	  0.2422	  0.4056	  0.5145	  0.5643	  0.5785	  0.5904	  0.6195	  0.6608	  0.7000	  0.7278	  0.7448	  0.7541	  0.7604	  0.7641	  0.7691	    0.78
350	350	  255.00	   36.00	  255.00	 0.46214	 0.25495	 0.30756	   57.56	   74.25	  -17.11	  0.2940	  0.3135	  0.3271	  0.3356	  0.4008	  0.4887	  0.4816	  0.4357	  0.3896	  0.3357	  0.2607	  0.1913	  0.1400	  0.0826	  0.0408	  0.0330	  0.0398	  0.0336	  0.0359	  0.1025	  0.2840	  0.5001	  0.6477	  0.7294	  0.7734	  0.7975	  0.8140	  0.8268	  0.8365	  0.8439	  0.8511	  0.8568	  0.8634	  0.8670	  0.8666	    0.86
351	351	    0.00	   72.00	  255.00	 0.07111	 0.04807	 0.37748	   26.18	   27.88	  -81.38	  0.2114	  0.2254	  0.2352	  0.2413	  0.3033	  0.4177	  0.5111	  0.5504	  0.5406	  0.5056	  0.4280	  0.3072	  0.2012	  0.1271	  0.0730	  0.0425	  0.0278	  0.0168	  0.0087	  0.0057	  0.0051	  0.0049	  0.0045	  0.0041	  0.0039	  0.0041	  0.0049	  0.0067	  0.0102	  0.0126	  0.0114	  0.0095	  0.0084	  0.0088	  0.0115	    0.02
352	352	   42.00	   72.00	  255.00	 0.12316	 0.08702	 0.42469	   35.40	   30.24	  -71.65	  0.2989	  0.3187	  0.3325	  0.3411	  0.4141	  0.5351	  0.5944	  0.6021	  0.5812	  0.5405	  0.4583	  0.3344	  0.2280	  0.1535	  0.0987	  0.0706	  0.0611	  0.0516	  0.0388	  0.0335	  0.0382	  0.0513	  0.0631	  0.0627	  0.0553	  0.0560	  0.0748	  0.1133	  0.1610	  0.1964	  0.2102	  0.2110	  0.2038	  0.2008	  0.2176	    0.26
353	353	   85.00	   72.00	  255.00	 0.18411	 0.13104	 0.42980	   42.92	   33.95	  -59.33	  0.3174	  0.3385	  0.3531	  0.3623	  0.4387	  0.5604	  0.6055	  0.6015	  0.5776	  0.5372	  0.4581	  0.3450	  0.2483	  0.1727	  0.1145	  0.0894	  0.0856	  0.0771	  0.0659	  0.0709	  0.0933	  0.1262	  0.1525	  0.1550	  0.1432	  0.1445	  0.1764	  0.2359	  0.3037	  0.3523	  0.3734	  0.3772	  0.3704	  0.3677	  0.3875	    0.43
354	354	  127.00	   72.00	  255.00	 0.24627	 0.17138	 0.41917	   48.43	   39.51	  -48.49	  0.3252	  0.3467	  0.3617	  0.3712	  0.4485	  0.5669	  0.5984	  0.5825	  0.5534	  0.5111	  0.4351	  0.3379	  0.2560	  0.1800	  0.1185	  0.0974	  0.0992	  0.0884	  0.0797	  0.1050	  0.1590	  0.2163	  0.2534	  0.2598	  0.2501	  0.2536	  0.2880	  0.3476	  0.4111	  0.4539	  0.4713	  0.4732	  0.4660	  0.4628	  0.4812	    0.52
355	355	  170.00	   72.00	  255.00	 0.32039	 0.21482	 0.40847	   53.47	   46.86	  -38.43	  0.3322	  0.3542	  0.3695	  0.3792	  0.4557	  0.5684	  0.5890	  0.5650	  0.5325	  0.4886	  0.4141	  0.3271	  0.2557	  0.1793	  0.1157	  0.0979	  0.1047	  0.0926	  0.0875	  0.1369	  0.2331	  0.3237	  0.3761	  0.3910	  0.3881	  0.3945	  0.4258	  0.4758	  0.5267	  0.5600	  0.5737	  0.5760	  0.5714	  0.5692	  0.5832	    0.62
356	356	  212.00	   72.00	  255.00	 0.42267	 0.27816	 0.41825	   59.72	   53.43	  -28.90	  0.3432	  0.3659	  0.3817	  0.3917	  0.4714	  0.5858	  0.6018	  0.5743	  0.5416	  0.4986	  0.4251	  0.3417	  0.2736	  0.1940	  0.1251	  0.1082	  0.1194	  0.1062	  0.1046	  0.1804	  0.3256	  0.4584	  0.5351	  0.5659	  0.5733	  0.5827	  0.6082	  0.6455	  0.6817	  0.7069	  0.7201	  0.7257	  0.7283	  0.7300	  0.7368	    0.75
357	357	  255.00	   72.00	  255.00	 0.52426	 0.33015	 0.41074	   64.17	   62.53	  -20.28	  0.3404	  0.3629	  0.3787	  0.3885	  0.4698	  0.5861	  0.5968	  0.5637	  0.5288	  0.4845	  0.4110	  0.3314	  0.2676	  0.1863	  0.1143	  0.0984	  0.1128	  0.0993	  0.1013	  0.2025	  0.4036	  0.5908	  0.7010	  0.7583	  0.7883	  0.8054	  0.8182	  0.8289	  0.8378	  0.8449	  0.8513	  0.8564	  0.8620	  0.8656	  0.8653	    0.86
358	358	    0.00	  109.00	  255.00	 0.07722	 0.06732	 0.41581	   31.19	   12.12	  -77.79	  0.2043	  0.2178	  0.2271	  0.2331	  0.2955	  0.4150	  0.5301	  0.5911	  0.5963	  0.5766	  0.5148	  0.4056	  0.2987	  0.2104	  0.1334	  0.0791	  0.0455	  0.0218	  0.0084	  0.0044	  0.0038	  0.0036	  0.0035	  0.0035	  0.0036	  0.0038	  0.0041	  0.0051	  0.0071	  0.0084	  0.0072	  0.0062	  0.0059	  0.0069	  0.0082	    0.01
359	359	   42.00	  109.00	  255.00	 0.12521	 0.11223	 0.46913	   39.96	   12.02	  -69.21	  0.3070	  0.3274	  0.3415	  0.3504	  0.4270	  0.5554	  0.6282	  0.6493	  0.6396	  0.6115	  0.5430	  0.4303	  0.3262	  0.2429	  0.1722	  0.1287	  0.1057	  0.0803	  0.0538	  0.0408	  0.0398	  0.0448	  0.0481	  0.0456	  0.0415	  0.0426	  0.0538	  0.0762	  0.1040	  0.1231	  0.1263	  0.1214	  0.1132	  0.1094	  0.1221	    0.16
360	360	   85.00	  109.00	  255.00	 0.20615	 0.17632	 0.48836	   49.05	   18.60	  -55.76	  0.3391	  0.3615	  0.3771	  0.3870	  0.4704	  0.6035	  0.6594	  0.6660	  0.6525	  0.6246	  0.5582	  0.4519	  0.3551	  0.2720	  0.1999	  0.1632	  0.1519	  0.1317	  0.1075	  0.1042	  0.1189	  0.1414	  0.1567	  0.1551	  0.1459	  0.1484	  0.1744	  0.2213	  0.2738	  0.3088	  0.3199	  0.3172	  0.3070	  0.3020	  0.3199	    0.37
361	361	  127.00	  109.00	  255.00	 0.27148	 0.22422	 0.48559	   54.47	   23.95	  -46.09	  0.3472	  0.3701	  0.3862	  0.3963	  0.4830	  0.6177	  0.6621	  0.6574	  0.6396	  0.6105	  0.5459	  0.4521	  0.3686	  0.2849	  0.2085	  0.1780	  0.1773	  0.1570	  0.1379	  0.1581	  0.1993	  0.2357	  0.2529	  0.2506	  0.2436	  0.2489	  0.2775	  0.3257	  0.3773	  0.4104	  0.4187	  0.4138	  0.4006	  0.3945	  0.4150	    0.47
362	362	  170.00	  109.00	  255.00	 0.36224	 0.28174	 0.48185	   60.04	   33.00	  -36.06	  0.3598	  0.3837	  0.4002	  0.4107	  0.4970	  0.6270	  0.6607	  0.6486	  0.6284	  0.5980	  0.5337	  0.4483	  0.3741	  0.2897	  0.2106	  0.1850	  0.1924	  0.1722	  0.1597	  0.2109	  0.2967	  0.3641	  0.3956	  0.4008	  0.3985	  0.4060	  0.4334	  0.4766	  0.5211	  0.5490	  0.5571	  0.5546	  0.5455	  0.5407	  0.5561	    0.60
363	363	  212.00	  109.00	  255.00	 0.46533	 0.34580	 0.48540	   65.42	   41.24	  -27.19	  0.3765	  0.4013	  0.4187	  0.4297	  0.5152	  0.6415	  0.6677	  0.6497	  0.6273	  0.5964	  0.5334	  0.4536	  0.3849	  0.2985	  0.2150	  0.1921	  0.2060	  0.1862	  0.1804	  0.2639	  0.4000	  0.5052	  0.5568	  0.5753	  0.5815	  0.5909	  0.6122	  0.6428	  0.6731	  0.6923	  0.7002	  0.7012	  0.6986	  0.6976	  0.7062	    0.73
364	364	  255.00	  109.00	  255.00	 0.58904	 0.42227	 0.49442	   71.03	   49.14	  -18.56	  0.3821	  0.4074	  0.4250	  0.4361	  0.5243	  0.6540	  0.6776	  0.6583	  0.6371	  0.6079	  0.5461	  0.4688	  0.4028	  0.3130	  0.2237	  0.2019	  0.2219	  0.2027	  0.2034	  0.3209	  0.5142	  0.6666	  0.7474	  0.7880	  0.8098	  0.8226	  0.8334	  0.8432	  0.8515	  0.8582	  0.8641	  0.8686	  0.8741	  0.8771	  0.8759	    0.87
365	365	    0.00	  145.00	  255.00	 0.08321	 0.08952	 0.44903	   35.90	   -2.71	  -73.82	  0.1997	  0.2129	  0.2222	  0.2280	  0.2901	  0.4119	  0.5427	  0.6221	  0.6414	  0.6370	  0.5928	  0.5011	  0.4015	  0.3060	  0.2089	  0.1267	  0.0671	  0.0273	  0.0085	  0.0038	  0.0030	  0.0030	  0.0030	  0.0032	  0.0033	  0.0034	  0.0037	  0.0046	  0.0063	  0.0077	  0.0066	  0.0056	  0.0056	  0.0066	  0.0082	    0.01
366	366	   42.00	  145.00	  255.00	 0.14590	 0.15708	 0.51427	   46.59	   -3.35	  -62.92	  0.3256	  0.3471	  0.3621	  0.3715	  0.4521	  0.5862	  0.6655	  0.6937	  0.6922	  0.6766	  0.6240	  0.5283	  0.4351	  0.3510	  0.2706	  0.2137	  0.1747	  0.1291	  0.0849	  0.0620	  0.0558	  0.0566	  0.0560	  0.0521	  0.0489	  0.0505	  0.0602	  0.0786	  0.1013	  0.1155	  0.1154	  0.1088	  0.0998	  0.0960	  0.1082	    0.14
367	367	   85.00	  145.00	  255.00	 0.22566	 0.22488	 0.53439	   54.54	    4.07	  -51.41	  0.3568	  0.3803	  0.3968	  0.4072	  0.4936	  0.6319	  0.6962	  0.7122	  0.7082	  0.6927	  0.6409	  0.5497	  0.4627	  0.3802	  0.3011	  0.2546	  0.2308	  0.1924	  0.1510	  0.1368	  0.1421	  0.1533	  0.1580	  0.1531	  0.1470	  0.1502	  0.1700	  0.2043	  0.2426	  0.2666	  0.2699	  0.2632	  0.2511	  0.2445	  0.2609	    0.31
368	368	  127.00	  145.00	  255.00	 0.29465	 0.27819	 0.53559	   59.72	   10.38	  -42.60	  0.3670	  0.3913	  0.4082	  0.4189	  0.5091	  0.6513	  0.7046	  0.7093	  0.7013	  0.6845	  0.6338	  0.5508	  0.4744	  0.3909	  0.3078	  0.2709	  0.2641	  0.2304	  0.1971	  0.2065	  0.2327	  0.2509	  0.2529	  0.2447	  0.2400	  0.2465	  0.2702	  0.3092	  0.3514	  0.3766	  0.3786	  0.3688	  0.3518	  0.3433	  0.3637	    0.42
369	369	  170.00	  145.00	  255.00	 0.39562	 0.34967	 0.54097	   65.72	   19.28	  -32.84	  0.3821	  0.4074	  0.4250	  0.4361	  0.5281	  0.6705	  0.7143	  0.7115	  0.7013	  0.6846	  0.6349	  0.5590	  0.4912	  0.4065	  0.3192	  0.2887	  0.2947	  0.2640	  0.2409	  0.2864	  0.3538	  0.3931	  0.4008	  0.3957	  0.3956	  0.4050	  0.4273	  0.4614	  0.4974	  0.5175	  0.5181	  0.5087	  0.4937	  0.4854	  0.5034	    0.55
370	370	  212.00	  145.00	  255.00	 0.51856	 0.43489	 0.55419	   71.89	   27.80	  -23.61	  0.4037	  0.4304	  0.4491	  0.4607	  0.5541	  0.6938	  0.7308	  0.7238	  0.7133	  0.6970	  0.6489	  0.5777	  0.5144	  0.4290	  0.3397	  0.3133	  0.3275	  0.3009	  0.2887	  0.3695	  0.4845	  0.5573	  0.5835	  0.5906	  0.5968	  0.6066	  0.6229	  0.6453	  0.6680	  0.6811	  0.6828	  0.6786	  0.6713	  0.6678	  0.6781	    0.70
371	371	  255.00	  145.00	  255.00	 0.63661	 0.50811	 0.55984	   76.57	   36.39	  -16.15	  0.4269	  0.4551	  0.4748	  0.4873	  0.5767	  0.7083	  0.7384	  0.7280	  0.7170	  0.7003	  0.6519	  0.5820	  0.5200	  0.4342	  0.3446	  0.3216	  0.3424	  0.3212	  0.3204	  0.4327	  0.5950	  0.7086	  0.7655	  0.7941	  0.8096	  0.8189	  0.8275	  0.8358	  0.8433	  0.8489	  0.8541	  0.8579	  0.8624	  0.8650	  0.8641	    0.86
372	372	    0.00	  182.00	  255.00	 0.09441	 0.12333	 0.49775	   41.74	  -18.42	  -69.43	  0.2149	  0.2291	  0.2390	  0.2453	  0.3131	  0.4441	  0.5834	  0.6705	  0.6984	  0.7070	  0.6802	  0.6091	  0.5247	  0.4301	  0.3188	  0.2059	  0.1113	  0.0454	  0.0137	  0.0051	  0.0036	  0.0032	  0.0030	  0.0030	  0.0030	  0.0030	  0.0033	  0.0043	  0.0061	  0.0076	  0.0064	  0.0055	  0.0055	  0.0065	  0.0083	    0.01
373	373	   42.00	  182.00	  255.00	 0.15571	 0.19930	 0.55575	   51.75	  -19.78	  -58.48	  0.3340	  0.3561	  0.3715	  0.3812	  0.4643	  0.6036	  0.6930	  0.7321	  0.7416	  0.7398	  0.7047	  0.6304	  0.5532	  0.4746	  0.3891	  0.3157	  0.2511	  0.1765	  0.1094	  0.0732	  0.0587	  0.0530	  0.0479	  0.0432	  0.0411	  0.0428	  0.0499	  0.0633	  0.0800	  0.0897	  0.0872	  0.0796	  0.0713	  0.0681	  0.0798	    0.11
374	374	   85.00	  182.00	  255.00	 0.25297	 0.28831	 0.58153	   60.64	  -10.23	  -45.85	  0.3775	  0.4025	  0.4199	  0.4309	  0.5189	  0.6619	  0.7336	  0.7574	  0.7627	  0.7597	  0.7246	  0.6528	  0.5818	  0.5079	  0.4299	  0.3755	  0.3358	  0.2748	  0.2120	  0.1815	  0.1727	  0.1705	  0.1643	  0.1554	  0.1512	  0.1553	  0.1713	  0.1984	  0.2289	  0.2464	  0.2447	  0.2348	  0.2205	  0.2131	  0.2295	    0.28
375	375	  127.00	  182.00	  255.00	 0.32160	 0.34391	 0.58597	   65.27	   -3.55	  -38.31	  0.3863	  0.4118	  0.4296	  0.4409	  0.5336	  0.6814	  0.7441	  0.7595	  0.7621	  0.7592	  0.7243	  0.6560	  0.5904	  0.5166	  0.4378	  0.3947	  0.3740	  0.3234	  0.2710	  0.2584	  0.2626	  0.2635	  0.2544	  0.2426	  0.2391	  0.2459	  0.2652	  0.2967	  0.3311	  0.3502	  0.3483	  0.3359	  0.3183	  0.3090	  0.3279	    0.38
376	376	  170.00	  182.00	  255.00	 0.41933	 0.41617	 0.59185	   70.60	    5.52	  -29.70	  0.3995	  0.4258	  0.4443	  0.4559	  0.5525	  0.7031	  0.7562	  0.7628	  0.7630	  0.7594	  0.7248	  0.6619	  0.6039	  0.5284	  0.4456	  0.4121	  0.4097	  0.3672	  0.3289	  0.3515	  0.3878	  0.4007	  0.3914	  0.3795	  0.3799	  0.3900	  0.4089	  0.4376	  0.4683	  0.4841	  0.4807	  0.4674	  0.4492	  0.4391	  0.4584	    0.51
377	377	  212.00	  182.00	  255.00	 0.54156	 0.50568	 0.60653	   76.42	   14.18	  -21.15	  0.4352	  0.4640	  0.4842	  0.4968	  0.5904	  0.7314	  0.7747	  0.7767	  0.7757	  0.7716	  0.7378	  0.6784	  0.6231	  0.5501	  0.4705	  0.4435	  0.4510	  0.4191	  0.3970	  0.4505	  0.5225	  0.5605	  0.5670	  0.5650	  0.5687	  0.5777	  0.5922	  0.6128	  0.6341	  0.6452	  0.6439	  0.6373	  0.6270	  0.6213	  0.6329	    0.66
378	378	  255.00	  182.00	  255.00	 0.68456	 0.60191	 0.61674	   81.94	   23.89	  -12.64	  0.4673	  0.4982	  0.5198	  0.5333	  0.6237	  0.7555	  0.7896	  0.7863	  0.7837	  0.7779	  0.7433	  0.6850	  0.6313	  0.5609	  0.4868	  0.4667	  0.4830	  0.4638	  0.4617	  0.5481	  0.6628	  0.7400	  0.7789	  0.7989	  0.8101	  0.8176	  0.8256	  0.8340	  0.8419	  0.8479	  0.8532	  0.8577	  0.8632	  0.8662	  0.8660	    0.87
379	379	    0.00	  218.00	  255.00	 0.11240	 0.17029	 0.55261	   48.30	  -32.90	  -64.12	  0.2541	  0.2709	  0.2826	  0.2900	  0.3658	  0.5077	  0.6411	  0.7236	  0.7560	  0.7753	  0.7625	  0.7080	  0.6391	  0.5557	  0.4465	  0.3190	  0.1960	  0.0957	  0.0351	  0.0126	  0.0067	  0.0050	  0.0043	  0.0040	  0.0039	  0.0039	  0.0044	  0.0058	  0.0087	  0.0106	  0.0090	  0.0077	  0.0070	  0.0083	  0.0114	    0.02
380	380	   42.00	  218.00	  255.00	 0.19081	 0.27784	 0.61079	   59.69	  -34.89	  -50.41	  0.3537	  0.3771	  0.3935	  0.4038	  0.4920	  0.6404	  0.7360	  0.7831	  0.8034	  0.8176	  0.8035	  0.7520	  0.6960	  0.6351	  0.5592	  0.4744	  0.3817	  0.2750	  0.1771	  0.1170	  0.0872	  0.0723	  0.0610	  0.0534	  0.0518	  0.0545	  0.0618	  0.0752	  0.0922	  0.1012	  0.0970	  0.0879	  0.0773	  0.0733	  0.0857	    0.12
381	381	   85.00	  218.00	  255.00	 0.27929	 0.35971	 0.62936	   66.50	  -24.77	  -40.49	  0.3920	  0.4179	  0.4360	  0.4474	  0.5393	  0.6890	  0.7686	  0.8015	  0.8174	  0.8293	  0.8133	  0.7614	  0.7082	  0.6506	  0.5830	  0.5221	  0.4612	  0.3756	  0.2871	  0.2303	  0.1992	  0.1807	  0.1632	  0.1500	  0.1470	  0.1522	  0.1659	  0.1890	  0.2158	  0.2299	  0.2247	  0.2118	  0.1949	  0.1863	  0.2033	    0.25
382	382	  127.00	  218.00	  255.00	 0.35144	 0.41786	 0.63530	   70.72	  -16.64	  -33.78	  0.4091	  0.4362	  0.4550	  0.4669	  0.5619	  0.7139	  0.7833	  0.8070	  0.8194	  0.8289	  0.8109	  0.7592	  0.7078	  0.6499	  0.5841	  0.5381	  0.5010	  0.4330	  0.3590	  0.3176	  0.2943	  0.2761	  0.2552	  0.2388	  0.2363	  0.2438	  0.2610	  0.2887	  0.3197	  0.3356	  0.3303	  0.3155	  0.2955	  0.2845	  0.3041	    0.36
383	383	  170.00	  218.00	  255.00	 0.45520	 0.49872	 0.64494	   75.99	   -7.18	  -25.62	  0.4304	  0.4588	  0.4787	  0.4913	  0.5882	  0.7396	  0.7993	  0.8153	  0.8254	  0.8345	  0.8162	  0.7666	  0.7188	  0.6622	  0.5990	  0.5646	  0.5466	  0.4951	  0.4405	  0.4257	  0.4233	  0.4140	  0.3956	  0.3806	  0.3799	  0.3888	  0.4057	  0.4322	  0.4604	  0.4744	  0.4700	  0.4564	  0.4378	  0.4279	  0.4461	    0.50
384	384	  212.00	  218.00	  255.00	 0.58052	 0.58902	 0.65411	   81.24	    3.07	  -17.44	  0.4653	  0.4961	  0.5175	  0.5310	  0.6249	  0.7664	  0.8149	  0.8237	  0.8307	  0.8372	  0.8179	  0.7695	  0.7235	  0.6697	  0.6124	  0.5878	  0.5839	  0.5508	  0.5204	  0.5377	  0.5660	  0.5780	  0.5744	  0.5689	  0.5709	  0.5786	  0.5920	  0.6114	  0.6317	  0.6426	  0.6417	  0.6354	  0.6266	  0.6220	  0.6329	    0.66
385	385	  255.00	  218.00	  255.00	 0.75576	 0.72689	 0.67791	   88.30	   11.44	   -7.49	  0.5077	  0.5412	  0.5648	  0.5795	  0.6695	  0.8019	  0.8420	  0.8470	  0.8541	  0.8613	  0.8447	  0.8007	  0.7595	  0.7133	  0.6672	  0.6535	  0.6617	  0.6488	  0.6461	  0.6960	  0.7570	  0.7970	  0.8161	  0.8262	  0.8326	  0.8382	  0.8457	  0.8541	  0.8619	  0.8684	  0.8737	  0.8781	  0.8836	  0.8866	  0.8869	    0.89
386	386	    0.00	  255.00	  255.00	 0.15830	 0.25639	 0.61910	   57.69	  -43.86	  -54.68	  0.3144	  0.3353	  0.3498	  0.3590	  0.4496	  0.6116	  0.7285	  0.7927	  0.8230	  0.8471	  0.8421	  0.7933	  0.7358	  0.6733	  0.5898	  0.4825	  0.3627	  0.2391	  0.1330	  0.0695	  0.0404	  0.0278	  0.0201	  0.0159	  0.0154	  0.0168	  0.0206	  0.0281	  0.0388	  0.0446	  0.0408	  0.0347	  0.0287	  0.0270	  0.0358	    0.06
387	387	   42.00	  255.00	  255.00	 0.22857	 0.35335	 0.65365	   66.01	  -44.03	  -43.65	  0.3595	  0.3833	  0.3999	  0.4103	  0.5080	  0.6748	  0.7745	  0.8242	  0.8519	  0.8784	  0.8788	  0.8369	  0.7911	  0.7470	  0.6894	  0.6099	  0.5109	  0.3922	  0.2689	  0.1766	  0.1232	  0.0951	  0.0751	  0.0628	  0.0611	  0.0659	  0.0763	  0.0946	  0.1173	  0.1289	  0.1229	  0.1099	  0.0944	  0.0875	  0.1047	    0.15
388	388	   85.00	  255.00	  255.00	 0.31243	 0.44124	 0.67958	   72.32	  -37.23	  -35.21	  0.4015	  0.4279	  0.4465	  0.4581	  0.5569	  0.7207	  0.8087	  0.8499	  0.8759	  0.9024	  0.9046	  0.8660	  0.8255	  0.7902	  0.7462	  0.6842	  0.6041	  0.5017	  0.3859	  0.2908	  0.2290	  0.1931	  0.1652	  0.1468	  0.1438	  0.1507	  0.1657	  0.1910	  0.2204	  0.2350	  0.2279	  0.2119	  0.1908	  0.1797	  0.1997	    0.26
389	389	  127.00	  255.00	  255.00	 0.41061	 0.52779	 0.69530	   77.74	  -27.90	  -27.27	  0.4427	  0.4720	  0.4924	  0.5053	  0.6018	  0.7559	  0.8312	  0.8644	  0.8882	  0.9131	  0.9148	  0.8794	  0.8426	  0.8126	  0.7782	  0.7309	  0.6698	  0.5890	  0.4927	  0.4095	  0.3517	  0.3164	  0.2875	  0.2679	  0.2648	  0.2721	  0.2883	  0.3146	  0.3438	  0.3582	  0.3519	  0.3363	  0.3159	  0.3049	  0.3232	    0.38
390	390	  170.00	  255.00	  255.00	 0.53329	 0.63075	 0.70978	   83.48	  -18.38	  -18.68	  0.4815	  0.5134	  0.5356	  0.5495	  0.6428	  0.7867	  0.8503	  0.8768	  0.8986	  0.9229	  0.9258	  0.8948	  0.8629	  0.8392	  0.8141	  0.7808	  0.7382	  0.6806	  0.6090	  0.5456	  0.4997	  0.4712	  0.4475	  0.4316	  0.4298	  0.4367	  0.4516	  0.4755	  0.5013	  0.5145	  0.5108	  0.4991	  0.4835	  0.4747	  0.4909	    0.54
391	391	  212.00	  255.00	  255.00	 0.67239	 0.74502	 0.72781	   89.15	   -9.88	  -10.49	  0.5124	  0.5462	  0.5700	  0.5849	  0.6777	  0.8182	  0.8737	  0.8942	  0.9147	  0.9392	  0.9436	  0.9161	  0.8887	  0.8705	  0.8547	  0.8341	  0.8091	  0.7750	  0.7307	  0.6928	  0.6639	  0.6463	  0.6319	  0.6230	  0.6234	  0.6293	  0.6411	  0.6591	  0.6777	  0.6880	  0.6878	  0.6825	  0.6753	  0.6721	  0.6834	    0.71
392	392	  255.00	  255.00	  255.00	 0.83338	 0.87173	 0.74536	   94.82	   -1.36	   -2.28	  0.5604	  0.5975	  0.6234	  0.6396	  0.7249	  0.8498	  0.8944	  0.9110	  0.9311	  0.9539	  0.9582	  0.9337	  0.9096	  0.8961	  0.8889	  0.8819	  0.8767	  0.8708	  0.8627	  0.8597	  0.8541	  0.8514	  0.8503	  0.8514	  0.8542	  0.8583	  0.8648	  0.8727	  0.8806	  0.8869	  0.8924	  0.8966	  0.9015	  0.9053	  0.9059	    0.91
393	393	   85.00	   85.00	   85.00	 0.09087	 0.09021	 0.07590	   36.03	    3.30	   -0.59	  0.0487	  0.0520	  0.0543	  0.0556	  0.0648	  0.0794	  0.0870	  0.0919	  0.0970	  0.1015	  0.1031	  0.1019	  0.0998	  0.0943	  0.0866	  0.0844	  0.0863	  0.0817	  0.0774	  0.0838	  0.0927	  0.0971	  0.0963	  0.0948	  0.0963	  0.1006	  0.1075	  0.1165	  0.1256	  0.1308	  0.1315	  0.1294	  0.1268	  0.1278	  0.1371	    0.15
394	394	  170.00	  170.00	  170.00	 0.35084	 0.36538	 0.28520	   66.93	   -0.50	    2.62	  0.1833	  0.1953	  0.2039	  0.2092	  0.2468	  0.3056	  0.3304	  0.3439	  0.3578	  0.3731	  0.3827	  0.3846	  0.3867	  0.3806	  0.3674	  0.3629	  0.3663	  0.3569	  0.3466	  0.3555	  0.3656	  0.3686	  0.3655	  0.3630	  0.3665	  0.3744	  0.3861	  0.4010	  0.4157	  0.4244	  0.4266	  0.4249	  0.4223	  0.4238	  0.4372	    0.46
395	395	   85.00	    0.00	    0.00	 0.03843	 0.02205	 0.00447	   16.53	   30.60	   20.05	  0.0069	  0.0074	  0.0077	  0.0079	  0.0079	  0.0071	  0.0061	  0.0054	  0.0049	  0.0047	  0.0045	  0.0044	  0.0043	  0.0041	  0.0041	  0.0039	  0.0037	  0.0041	  0.0049	  0.0074	  0.0215	  0.0477	  0.0612	  0.0659	  0.0693	  0.0727	  0.0767	  0.0813	  0.0857	  0.0887	  0.0903	  0.0908	  0.0911	  0.0925	  0.0965	    0.10
396	396	  170.00	    0.00	    0.00	 0.16659	 0.08854	 0.00821	   35.71	   55.63	   46.12	  0.0175	  0.0187	  0.0195	  0.0200	  0.0199	  0.0164	  0.0116	  0.0090	  0.0076	  0.0072	  0.0075	  0.0070	  0.0062	  0.0056	  0.0058	  0.0056	  0.0049	  0.0048	  0.0057	  0.0117	  0.0738	  0.2079	  0.2821	  0.3069	  0.3205	  0.3322	  0.3449	  0.3590	  0.3720	  0.3799	  0.3825	  0.3817	  0.3798	  0.3813	  0.3925	    0.41
397	397	    0.00	   72.00	    0.00	 0.01223	 0.02372	 0.01028	   17.33	  -27.08	   11.10	  0.0081	  0.0087	  0.0090	  0.0093	  0.0092	  0.0092	  0.0089	  0.0089	  0.0093	  0.0103	  0.0135	  0.0226	  0.0376	  0.0470	  0.0485	  0.0449	  0.0382	  0.0292	  0.0203	  0.0143	  0.0110	  0.0094	  0.0084	  0.0078	  0.0076	  0.0078	  0.0084	  0.0093	  0.0106	  0.0115	  0.0110	  0.0102	  0.0091	  0.0092	  0.0111	    0.02
398	398	    0.00	  182.00	    0.00	 0.02598	 0.07895	 0.02324	   33.76	  -64.60	   24.96	  0.0126	  0.0135	  0.0140	  0.0145	  0.0141	  0.0132	  0.0126	  0.0127	  0.0138	  0.0164	  0.0251	  0.0641	  0.1534	  0.2196	  0.2209	  0.1868	  0.1391	  0.0874	  0.0465	  0.0257	  0.0171	  0.0135	  0.0113	  0.0101	  0.0098	  0.0098	  0.0104	  0.0120	  0.0144	  0.0155	  0.0148	  0.0132	  0.0121	  0.0121	  0.0154	    0.02
399	399	    0.00	    0.00	   85.00	 0.01807	 0.01070	 0.03828	    9.56	   22.64	  -27.80	  0.0288	  0.0308	  0.0320	  0.0329	  0.0386	  0.0486	  0.0536	  0.0549	  0.0535	  0.0491	  0.0399	  0.0265	  0.0162	  0.0103	  0.0071	  0.0054	  0.0048	  0.0047	  0.0044	  0.0049	  0.0063	  0.0099	  0.0144	  0.0154	  0.0129	  0.0132	  0.0205	  0.0371	  0.0597	  0.0795	  0.0924	  0.0994	  0.1024	  0.1049	  0.1112	    0.12
400	400	    0.00	    0.00	  170.00	 0.04166	 0.01918	 0.13097	   15.05	   41.61	  -54.75	  0.1009	  0.1075	  0.1122	  0.1152	  0.1393	  0.1794	  0.1973	  0.1965	  0.1833	  0.1594	  0.1188	  0.0669	  0.0323	  0.0166	  0.0094	  0.0067	  0.0059	  0.0056	  0.0054	  0.0058	  0.0077	  0.0136	  0.0222	  0.0239	  0.0186	  0.0186	  0.0323	  0.0679	  0.1218	  0.1729	  0.2066	  0.2246	  0.2314	  0.2361	  0.2486	    0.27
END_DATA
